Unnamed: 1	#Wave	Unnamed: 3	#Intensity
699.292969	6113.438965		
700.611694	6243.875		
701.93042	6233.036621		
703.249146	6289.402344		
704.567871	6308.763184		
705.886597	6257.724609		
707.205322	6267.17627		
708.524048	6458.877441		
709.842773	6288.386719		
711.161499	6344.27832		
712.480225	6323.25293		
713.79895	6308.18457		
715.117676	6315.188477		
716.436401	6312.65918		
717.755127	6398.186035		
719.073853	6441.480469		
720.392578	6426.233887		
721.711304	6430.900879		
723.030029	6420.745117		
724.348755	6424.058594		
725.66748	6452.391602		
726.986206	6441.200684		
728.304932	6481.777832		
729.623657	6476.846191		
730.942383	6448.240234		
732.261108	6423.727539		
733.579834	6481.061523		
734.89856	6572.822754		
736.217285	6547.190918		
737.536011	6484.516602		
738.854736	6505.348145		
740.173462	6467.785156		
741.492188	6472.609375		
742.810913	6510.960449		
744.129639	6564.189453		
745.448364	6603.118164		
746.76709	6551.790039		
748.085815	6569.846191		
749.404541	6552.037598		
750.723267	6523.991211		
752.041992	6569.49707		
753.360718	6595.742676		
754.679443	6573.255371		
755.998169	6648.217773		
757.316895	6635.064941		
758.63562	6519.601074		
759.954346	6641.943359		
761.273071	6617.903809		
762.591797	6540.816895		
763.910522	6542.882324		
765.229248	6600.063965		
766.547974	6644.848633		
767.866699	6737.097656		
769.185425	6637.969238		
770.50415	6647.637695		
771.822876	6684.421875		
773.141602	6675.309082		
774.460327	6679.933105		
775.779053	6781.451172		
777.097778	6585.186523		
778.416504	6773.058105		
779.735229	6699.68457		
781.053955	6740.937988		
782.372681	6800.471191		
783.691406	6782.069824		
785.010132	6734.208008		
786.328857	6713.591309		
787.647583	6799.146484		
788.966309	6781.671875		
790.285034	6821.962891		
791.60376	6806.870117		
792.922485	6795.109375		
794.241211	6887.009277		
795.559937	7016.625488		
796.878662	6839.84668		
798.197388	6779.208496		
799.516113	6920.930176		
800.834839	6902.665527		
802.153564	6871.383301		
803.47229	6898.00293		
804.791016	6925.283203		
806.109741	6914.018555		
807.428467	6981.40625		
808.747192	6892.495117		
810.065918	6975.383301		
811.384644	6953.288086		
812.703369	7005.105469		
814.022095	7056.588379		
815.34082	6981.015137		
816.659546	7048.726563		
817.978271	7168.160156		
819.296997	7143.900391		
820.615723	7090.981934		
821.934448	7101.219238		
823.253174	7159.98291		
824.571899	7151.676758		
825.890625	7070.958008		
827.209351	7171.789063		
828.528076	7023.95166		
829.846802	7107.384766		
831.165527	7164.022949		
832.484253	7163.863281		
833.802979	7141.866211		
835.121704	7138.53418		
836.44043	7164.120117		
837.759155	7191.85498		
839.077881	7190.108398		
840.396606	7172.11084		
841.715332	7219.441895		
843.034058	7202.72998		
844.352783	7266.753418		
845.671509	7336.08252		
846.990234	7228.689453		
848.30896	7235.368164		
849.627686	7290.325195		
850.946411	7354.826172		
852.265137	7307.930176		
853.583862	7319.413086		
854.902588	7280.505859		
856.221313	7193.418945		
857.540039	7222.193848		
858.858765	7364.159668		
860.17749	7260.387207		
861.496216	7361.305664		
862.814941	7258.586426		
864.133667	7307.179199		
865.452393	7359.170898		
866.771118	7303.709961		
868.089844	7275.750488		
869.408569	7412.282227		
870.727295	7393.012695		
872.046021	7360.943848		
873.364746	7361.399902		
874.683472	7397.924805		
876.002197	7435.183594		
877.320923	7408.844238		
878.639648	7337.498047		
879.958374	7364.65625		
881.2771	7519.555664		
882.595825	7385.935547		
883.914551	7390.989258		
885.233276	7431.060547		
886.552002	7437.868164		
887.870728	7477.025879		
889.189453	7531.585449		
890.508179	7481.546387		
891.826904	7477.265137		
893.14563	7594.544922		
894.464355	7538.688965		
895.783081	7664.351563		
897.101807	7654.559082		
898.420532	7626.977051		
899.739258	7674.079102		
901.057983	7720.006836		
902.376709	7791.608887		
903.695435	7577.789551		
905.01416	7775.081543		
906.332886	7750.511719		
907.651611	7767.391113		
908.970337	7842.664063		
910.289063	7837.327637		
911.607788	7765.552246		
912.926514	7816.962402		
914.245239	7788.667969		
915.563965	7801.741211		
916.88269	7832.163086		
918.201416	7806.473633		
919.520142	7861.317383		
920.838867	7832.358398		
922.157593	7748.699219		
923.476318	7793.941406		
924.795044	7825.184082		
926.11377	7978.990723		
927.432495	7857.254395		
928.751221	7889.266113		
930.069946	7842.416504		
931.388672	7872.401367		
932.707397	7880.276855		
934.026123	7803.805176		
935.344849	7807.04541		
936.663574	7785.881836		
937.9823	7908.919922		
939.301025	7952.708008		
940.619751	7939.588379		
941.938477	7843.495605		
943.257202	7947.565918		
944.575928	8079.506348		
945.894653	7959.029785		
947.213379	7843.075684		
948.532104	8066.277344		
949.85083	7919.951172		
951.169556	7972.497559		
952.488281	7959.365234		
953.807007	7896.571289		
955.125732	7886.828613		
956.444458	7976.532227		
957.763184	8071.866699		
959.081909	8038.70752		
960.400635	8100.722656		
961.71936	8048.27002		
963.038086	7958.4375		
964.356812	8076.865234		
965.675537	8129.624512		
966.994263	8071.589844		
968.312988	8000.69043		
969.631714	7979.505859		
970.950439	8012.089844		
972.269165	8115.830078		
973.587891	8036.170898		
974.906616	8028.449219		
976.225342	8112.308594		
977.544067	8145.753418		
978.862793	8056.80127		
980.181519	8029.5		
981.500244	8172.522949		
982.81897	8217.651367		
984.137695	8346.850586		
985.456421	8206.857422		
986.775146	8157.332031		
988.093872	8239.374023		
989.412598	8289.751953		
990.731323	8269.494141		
992.050049	8256.907227		
993.368774	8274.076172		
994.6875	8254.283203		
996.006226	8371.783203		
997.324951	8324.890625		
998.643677	8478.058594		
999.962402	8324.681641		
1001.281128	8345.158203		
1002.599854	8443.134766		
1003.918579	8431.804688		
1005.237305	8413.288086		
1006.55603	8545.268555		
1007.874756	8504.97168		
1009.193481	8489.720703		
1010.512207	8423.773438		
1011.830933	8425.290039		
1013.149658	8444.632813		
1014.468384	8486.598633		
1015.787109	8484.894531		
1017.105835	8417.867188		
1018.424561	8401.510742		
1019.743286	8546.260742		
1021.062012	8590.286133		
1022.380737	8453.676758		
1023.699463	8526.170898		
1025.018188	8612.958008		
1026.336914	8587.039063		
1027.65564	8643.796875		
1028.974365	8725.628906		
1030.293091	8623.932617		
1031.611816	8488.389648		
1032.930542	8709.154297		
1034.249268	8710.570313		
1035.567993	8617.707031		
1036.886719	8587.681641		
1038.205444	8585.088867		
1039.52417	8607.412109		
1040.842896	8613.902344		
1042.161621	8644.1875		
1043.480347	8708.568359		
1044.799072	8653.490234		
1046.117798	8795.342773		
1047.436523	8645.574219		
1048.755249	8700.080078		
1050.073975	8633.660156		
1051.3927	8628.276367		
1052.711426	8693.523438		
1054.030151	8746.704102		
1055.348877	8753.407227		
1056.667603	8720.538086		
1057.986328	8638.717773		
1059.305054	8763.241211		
1060.623779	8783.051758		
1061.942505	8728.822266		
1063.26123	8701.868164		
1064.579956	8742.43457		
1065.898682	8815.580078		
1067.217407	8834.695313		
1068.536133	8847.139648		
1069.854858	8970.737305		
1071.173584	9003.581055		
1072.49231	8797.863281		
1073.811035	8780.862305		
1075.129761	8925.259766		
1076.448486	8891.994141		
1077.767212	8903.514648		
1079.085938	8976.134766		
1080.404663	8960.268555		
1081.723389	8904.551758		
1083.042114	8996.792969		
1084.36084	9052.582031		
1085.679565	9032.441406		
1086.998291	9007.719727		
1088.317017	8919.072266		
1089.635742	9061.770508		
1090.954468	9149.717773		
1092.273193	9112.586914		
1093.591919	9079.961914		
1094.910645	9055.727539		
1096.22937	8995.40625		
1097.548096	9109.344727		
1098.866821	9112.270508		
1100.185547	9152.396484		
1101.504272	9171.009766		
1102.822998	9279.575195		
1104.141724	9200.961914		
1105.460449	9114.333984		
1106.779175	9207.817383		
1108.0979	9273.53418		
1109.416626	9159.699219		
1110.735352	9198.549805		
1112.054077	9228.503906		
1113.372803	9228.460938		
1114.691528	9359.878906		
1116.010254	9183.458984		
1117.328979	9170.84668		
1118.647705	9174.498047		
1119.966431	9259.364258		
1121.285156	9364.694336		
1122.603882	9361.646484		
1123.922607	9338.592773		
1125.241333	9405.423828		
1126.560059	9387.121094		
1127.878784	9469.625		
1129.19751	9378.318359		
1130.516235	9375.676758		
1131.834961	9341.329102		
1133.153687	9369.044922		
1134.472412	9410.615234		
1135.791138	9383.333008		
1137.109863	9360.274414		
1138.428589	9447.955078		
1139.747314	9500.612305		
1141.06604	9448.90332		
1142.384766	9377.039063		
1143.703491	9360.359375		
1145.022217	9367.019531		
1146.340942	9429.716797		
1147.659668	9474.541992		
1148.978394	9545.289063		
1150.297119	9576.639648		
1151.615845	9482.760742		
1152.93457	9417.331055		
1154.253296	9380.515625		
1155.572021	9365.069336		
1156.890747	9462.317383		
1158.209473	9446.203125		
1159.528198	9469.688477		
1160.846924	9594.351563		
1162.165649	9582.814453		
1163.484375	9551.179688		
1164.803101	9543.169922		
1166.121826	9494.606445		
1167.440552	9555.103516		
1168.759277	9565.741211		
1170.078003	9573.474609		
1171.396729	9573.473633		
1172.715454	9580.708984		
1174.03418	9624.87207		
1175.352905	9607.137695		
1176.671631	9671.026367		
1177.990356	9745.043945		
1179.309082	9695.71582		
1180.627808	9634.026367		
1181.946533	9709.922852		
1183.265259	9698.269531		
1184.583984	9736.073242		
1185.90271	9565.339844		
1187.221436	9846.283203		
1188.540161	9810.94043		
1189.858887	9797.114258		
1191.177612	9850.106445		
1192.496338	9912.643555		
1193.815063	9861.424805		
1195.133789	9786.887695		
1196.452515	9859.628906		
1197.77124	9924.729492		
1199.089966	9930.727539		
1200.408691	10076.838867		
1201.727417	9853.538086		
1203.046143	9935.693359		
1204.364868	9994.193359		
1205.683594	10055.869141		
1207.002319	10023.054688		
1208.321045	10034.100586		
1209.639771	9953.913086		
1210.958496	9862.25		
1212.277222	10067.955078		
1213.595947	10097.513672		
1214.914673	9973.484375		
1216.233398	10180.414063		
1217.552124	10062.384766		
1218.87085	10039.522461		
1220.189575	9947.738281		
1221.508301	10114.469727		
1222.827026	10243.943359		
1224.145752	10212.450195		
1225.464478	10188.754883		
1226.783203	10238.118164		
1228.101929	10190.253906		
1229.420654	10021.21582		
1230.73938	10132.758789		
1232.058105	10254.754883		
1233.376831	10096.532227		
1234.695557	10124.125977		
1236.014282	10209.972656		
1237.333008	10256.054688		
1238.651733	10213.266602		
1239.970459	10252.063477		
1241.289185	10329.022461		
1242.60791	10292.946289		
1243.926636	10232.806641		
1245.245361	10269.540039		
1246.564087	10188.833984		
1247.882813	10262.779297		
1249.201538	10293.356445		
1250.520264	9987.305664		
1251.838989	10161.251953		
1253.157715	10260.760742		
1254.47644	10231.286133		
1255.795166	10230.813477		
1257.113892	10302.647461		
1258.432617	10366.088867		
1259.751343	10387.237305		
1261.070068	10398.738281		
1262.388794	10378.612305		
1263.70752	10411.21875		
1265.026245	10335.22168		
1266.344971	10467.53418		
1267.663696	10448.330078		
1268.982422	10381.078125		
1270.301147	10429.677734		
1271.619873	10458.088867		
1272.938599	10468.889648		
1274.257324	10373.164063		
1275.57605	10375.148438		
1276.894775	10544.5625		
1278.213501	10458.128906		
1279.532227	10411.870117		
1280.850952	10611.633789		
1282.169678	10464.074219		
1283.488403	10571.125977		
1284.807129	10515.223633		
1286.125854	10663.647461		
1287.44458	10618.467773		
1288.763306	10530.498047		
1290.082031	10586.079102		
1291.400757	10658.873047		
1292.719482	10659.179688		
1294.038208	10652.351563		
1295.356934	10667.080078		
1296.675659	10698.555664		
1297.994385	10612.359375		
1299.31311	10765.839844		
1300.631836	10785.511719		
1301.950562	10831.501953		
1303.269287	10806.506836		
1304.588013	10785.060547		
1305.906738	10782.401367		
1307.225464	10783.754883		
1308.544189	10831.823242		
1309.862915	10896.644531		
1311.181641	10920.706055		
1312.500366	10911.43457		
1313.819092	10904.436523		
1315.137817	10972.269531		
1316.456543	11095.249023		
1317.775269	10960.456055		
1319.093994	10898.542969		
1320.41272	10894.470703		
1321.731445	10992.300781		
1323.050171	10985.045898		
1324.368896	10998.797852		
1325.687622	11049.908203		
1327.006348	11109.036133		
1328.325073	11101.867188		
1329.643799	11017.626953		
1330.962524	10961.209961		
1332.28125	11031.993164		
1333.599976	11219.761719		
1334.918701	11093.171875		
1336.237427	11104.359375		
1337.556152	11088.164063		
1338.874878	11039.421875		
1340.193604	11027.230469		
1341.512329	11095.180664		
1342.831055	11048.825195		
1344.14978	11051.258789		
1345.468506	11045.036133		
1346.787231	11061.435547		
1348.105957	11095.740234		
1349.424683	11096.217773		
1350.743408	11148.916992		
1352.062134	11131.141602		
1353.380859	11051.029297		
1354.699585	11136.65625		
1356.018311	11062.673828		
1357.337036	11130.34375		
1358.655762	11180.192383		
1359.974487	11111.334961		
1361.293213	11199.110352		
1362.611938	11163.951172		
1363.930664	11113.738281		
1365.24939	11158.879883		
1366.568115	11229.978516		
1367.886841	11260.306641		
1369.205566	11283.731445		
1370.524292	11293.728516		
1371.843018	11217.69043		
1373.161743	11280.566406		
1374.480469	11206.177734		
1375.799194	11178.21582		
1377.11792	11394.196289		
1378.436646	11280.367188		
1379.755371	11183.628906		
1381.074097	11236.525391		
1382.392822	11442.416992		
1383.711548	11395.960938		
1385.030273	11430.415039		
1386.348999	11453.762695		
1387.667725	11369.542969		
1388.98645	11376.230469		
1390.305176	11423.469727		
1391.623901	11524.52832		
1392.942627	11526.833008		
1394.261353	11469.525391		
1395.580078	11608.649414		
1396.898804	11277.765625		
1398.217529	11573.141602		
1399.536255	11420.430664		
1400.85498	11579.839844		
1402.173706	11549.595703		
1403.492432	11513.78418		
1404.811157	11600.436523		
1406.129883	11600.975586		
1407.448608	11656.126953		
1408.767334	11687.157227		
1410.08606	11636.227539		
1411.404785	11721.113281		
1412.723511	11676.335938		
1414.042236	11769.792969		
1415.360962	11720.162109		
1416.679688	11673.224609		
1417.998413	11842.49707		
1419.317139	11794.251953		
1420.635864	11772.287109		
1421.95459	11798.884766		
1423.273315	11879.774414		
1424.592041	11788.882813		
1425.910767	11858.922852		
1427.229492	11896.150391		
1428.548218	11895.204102		
1429.866943	11825.211914		
1431.185669	11718.380859		
1432.504395	11773.088867		
1433.82312	11847.90918		
1435.141846	11820.798828		
1436.460571	11969.446289		
1437.779297	11895.220703		
1439.098022	11947.12793		
1440.416748	12046.863281		
1441.735474	11915.222656		
1443.054199	11996.606445		
1444.372925	11955.985352		
1445.69165	12006.724609		
1447.010376	11897.50293		
1448.329102	11961.286133		
1449.647827	11917.033203		
1450.966553	12054.291992		
1452.285278	12079.041992		
1453.604004	11929.021484		
1454.922729	11932.905273		
1456.241455	11901.603516		
1457.560181	11849.089844		
1458.878906	11837.586914		
1460.197632	12059.699219		
1461.516357	12120.639648		
1462.835083	11941.450195		
1464.153809	12050.232422		
1465.472534	12033.474609		
1466.79126	11980.454102		
1468.109985	12200.074219		
1469.428711	12174.992188		
1470.747437	12112.453125		
1472.066162	12095.404297		
1473.384888	12095.136719		
1474.703613	12095.47168		
1476.022339	12117.514648		
1477.341064	12127.895508		
1478.65979	12053.62793		
1479.978516	12000.03418		
1481.297241	12082.009766		
1482.615967	12160.241211		
1483.934692	12289.601563		
1485.253418	12144.232422		
1486.572144	12293.726563		
1487.890869	12116.429688		
1489.209595	12208.835938		
1490.52832	12267.825195		
1491.847046	12338.8125		
1493.165771	12259.037109		
1494.484497	12314.924805		
1495.803223	12256.837891		
1497.121948	12204.014648		
1498.440674	12162.883789		
1499.759399	12209.100586		
1501.078125	12322.166016		
1502.396851	12301.175781		
1503.715576	12187.362305		
1505.034302	12163.004883		
1506.353027	12226.631836		
1507.671753	12297.499023		
1508.990479	12253.553711		
1510.309204	12356.214844		
1511.62793	12376.701172		
1512.946655	12362.507813		
1514.265381	12359.967773		
1515.584106	12420.382813		
1516.902832	12484.27832		
1518.221558	12407.186523		
1519.540283	12476.05957		
1520.859009	12412.94043		
1522.177734	12541.875977		
1523.49646	12579.579102		
1524.815186	12483.606445		
1526.133911	12474.473633		
1527.452637	12523.78418		
1528.771362	12537.126953		
1530.090088	12581.498047		
1531.408813	12626.460938		
1532.727539	12572.830078		
1534.046265	12534.499023		
1535.36499	12596.186523		
1536.683716	12593.243164		
1538.002441	12474.867188		
1539.321167	12543.816406		
1540.639893	12725.136719		
1541.958618	12767.135742		
1543.277344	12627.250977		
1544.596069	12731.416016		
1545.914795	12684.699219		
1547.233521	12776.72168		
1548.552246	12849.74707		
1549.870972	12665.150391		
1551.189697	12728.874023		
1552.508423	12806.115234		
1553.827148	12755.96875		
1555.145874	12660.297852		
1556.4646	12805.990234		
1557.783325	12835.058594		
1559.102051	12735.589844		
1560.420776	12792.869141		
1561.739502	12848.841797		
1563.058228	12789.882813		
1564.376953	12714.209961		
1565.695679	12737.444336		
1567.014404	12822.419922		
1568.33313	12896.171875		
1569.651855	12910.036133		
1570.970581	12700.443359		
1572.289307	12869.246094		
1573.608032	12916.661133		
1574.926758	12747.991211		
1576.245483	12901.823242		
1577.564209	12876.134766		
1578.882935	12960.398438		
1580.20166	12961.442383		
1581.520386	12819.532227		
1582.839111	12846.652344		
1584.157837	12916.084961		
1585.476563	12919.558594		
1586.795288	12985.682617		
1588.114014	12900.117188		
1589.432739	12806.727539		
1590.751465	12796.052734		
1592.07019	12777.390625		
1593.388916	12942.4375		
1594.707642	13132.65625		
1596.026367	13103.300781		
1597.345093	13138.572266		
1598.663818	12982.335938		
1599.982544	12917.791992		
1601.30127	13025.325195		
1602.619995	13030.53125		
1603.938721	12812.632813		
1605.257446	13019.474609		
1606.576172	13064.385742		
1607.894897	13034.985352		
1609.213623	13051.269531		
1610.532349	13174.209961		
1611.851074	13155.02832		
1613.1698	13200.213867		
1614.488525	13214.982422		
1615.807251	13166.84375		
1617.125977	12957.158203		
1618.444702	13116.316406		
1619.763428	13128.970703		
1621.082153	13174.84375		
1622.400879	13326.620117		
1623.719604	13282.958008		
1625.03833	13320.334961		
1626.357056	13360.780273		
1627.675781	13340.261719		
1628.994507	13346.535156		
1630.313232	13315.5		
1631.631958	13353.015625		
1632.950684	13331.202148		
1634.269409	13340.501953		
1635.588135	13366.412109		
1636.90686	13331.881836		
1638.225586	13376.4375		
1639.544312	13514.348633		
1640.863037	13504.628906		
1642.181763	13561.486328		
1643.500488	13266.604492		
1644.819214	13400.407227		
1646.137939	13535.787109		
1647.456665	13414.44043		
1648.775391	13240.879883		
1650.094116	13484.400391		
1651.412842	13611.669922		
1652.731567	13597.632813		
1654.050293	13623.708984		
1655.369019	13471.774414		
1656.687744	13619.630859		
1658.00647	13666.332031		
1659.325195	13640.151367		
1660.643921	13638.001953		
1661.962646	13493.874023		
1663.281372	13600.235352		
1664.600098	13670.56543		
1665.918823	13648.779297		
1667.237549	13739.24707		
1668.556274	13766.089844		
1669.875	13664.280273		
1671.193726	13657.737305		
1672.512451	13728.626953		
1673.831177	13638.012695		
1675.149902	13590.193359		
1676.468628	13692.858398		
1677.787354	13747.941406		
1679.106079	13811.910156		
1680.424805	13722.147461		
1681.74353	13746.030273		
1683.062256	13803.107422		
1684.380981	13827.696289		
1685.699707	13976.772461		
1687.018433	13839.304688		
1688.337158	13771.151367		
1689.655884	13844.173828		
1690.974609	13746.005859		
1692.293335	13667.419922		
1693.612061	13702.464844		
1694.930786	13657.518555		
1696.249512	13748.104492		
1697.568237	13642.599609		
1698.886963	13689.316406		
1700.205688	13864.849609		
1701.524414	13872.546875		
1702.84314	13764.756836		
1704.161865	13784.222656		
1705.480591	13805.876953		
1706.799316	13792.632813		
1708.118042	13916.172852		
1709.436768	13913.240234		
1710.755493	13877.433594		
1712.074219	13848.915039		
1713.392944	13827.19043		
1714.71167	13846.49707		
1716.030396	13794.695313		
1717.349121	13731.927734		
1718.667847	13748.400391		
1719.986572	13896.516602		
1721.305298	14009.563477		
1722.624023	13897.007813		
1723.942749	13940.633789		
1725.261475	14074.242188		
1726.5802	13954.089844		
1727.898926	13997.52832		
1729.217651	14139.674805		
1730.536377	14125.826172		
1731.855103	13854.21582		
1733.173828	13897.667969		
1734.492554	14059.232422		
1735.811279	14005.84668		
1737.130005	13987.196289		
1738.44873	14250.344727		
1739.767456	13976.941406		
1741.086182	14137.139648		
1742.404907	14012.104492		
1743.723633	14167.325195		
1745.042358	14071.295898		
1746.361084	14080.452148		
1747.67981	14332.46875		
1748.998535	14167.066406		
1750.317261	14172.086914		
1751.635986	14247.462891		
1752.954712	14087.808594		
1754.273438	14060.234375		
1755.592163	14174.768555		
1756.910889	14094.74707		
1758.229614	14176.041992		
1759.54834	14323.714844		
1760.867065	14220.508789		
1762.185791	14226.166992		
1763.504517	14170.692383		
1764.823242	14237.094727		
1766.141968	14330.791992		
1767.460693	14410.125		
1768.779419	14430.543945		
1770.098145	14313.657227		
1771.41687	14383.328125		
1772.735596	14370.628906		
1774.054321	14333.719727		
1775.373047	14287.96582		
1776.691772	14427.396484		
1778.010498	14400.040039		
1779.329224	14329.672852		
1780.647949	14388.772461		
1781.966675	14349.386719		
1783.2854	14381.94043		
1784.604126	14421.829102		
1785.922852	14391.28418		
1787.241577	14456.602539		
1788.560303	14520.625		
1789.879028	14375.750977		
1791.197754	14381.206055		
1792.516479	14490.47168		
1793.835205	14481.003906		
1795.153931	14516.577148		
1796.472656	14428.623047		
1797.791382	14385.341797		
1799.110107	14419.361328		
1800.428833	14540.485352		
1801.747559	14513.80957		
1803.066284	14616.354492		
1804.38501	14491.365234		
1805.703735	14431.128906		
1807.022461	14516.477539		
1808.341187	14382.177734		
1809.659912	14415.75		
1810.978638	14349.098633		
1812.297363	14419.537109		
1813.616089	14395.291016		
1814.934814	14578.512695		
1816.25354	14557.285156		
1817.572266	14620.90918		
1818.890991	14553.90918		
1820.209717	14551.732422		
1821.528442	14631.068359		
1822.847168	14542.15332		
1824.165894	14591.77832		
1825.484619	14588.094727		
1826.803345	14473.635742		
1828.12207	14552.889648		
1829.440796	14539.149414		
1830.759521	14491.683594		
1832.078247	14634.405273		
1833.396973	14599.97168		
1834.715698	14465.254883		
1836.034424	14758.09375		
1837.353149	14626.637695		
1838.671875	14737.532227		
1839.990601	14581.55957		
1841.309326	14724.404297		
1842.628052	14815.570313		
1843.946777	14854.605469		
1845.265503	14777.875977		
1846.584229	14685.955078		
1847.902954	14627.441406		
1849.22168	14910.186523		
1850.540405	14623.279297		
1851.859131	14728.023438		
1853.177856	14649.603516		
1854.496582	14755.270508		
1855.815308	14874.066406		
1857.134033	14824.621094		
1858.452759	14761.644531		
1859.771484	15022.882813		
1861.09021	15061.387695		
1862.408936	14928.870117		
1863.727661	14863.680664		
1865.046387	14842.342773		
1866.365112	14726.248047		
1867.683838	14935.214844		
1869.002563	14902.521484		
1870.321289	14953.055664		
1871.640015	14795.818359		
1872.95874	15089.93457		
1874.277466	15052.336914		
1875.596191	15035.266602		
1876.914917	14976.813477		
1878.233643	15043.796875		
1879.552368	14995.239258		
1880.871094	15198.535156		
1882.189819	14991.772461		
1883.508545	15215.142578		
1884.827271	15114.177734		
1886.145996	15083.544922		
1887.464722	15192.009766		
1888.783447	15117.366211		
1890.102173	15153.797852		
1891.420898	15233.032227		
1892.739624	15242.458008		
1894.05835	15288.399414		
1895.377075	15260.493164		
1896.695801	15173.232422		
1898.014526	15271.772461		
1899.333252	15154.058594		
1900.651978	15089.033203		
1901.970703	15107.331055		
1903.289429	15400.227539		
1904.608154	15173.689453		
1905.92688	15081.808594		
1907.245605	15175.71875		
1908.564331	15256.894531		
1909.883057	15118.396484		
1911.201782	15145.544922		
1912.520508	15195.177734		
1913.839233	15333.742188		
1915.157959	15250.964844		
1916.476685	15207.538086		
1917.79541	15335.467773		
1919.114136	15214.786133		
1920.432861	15269.797852		
1921.751587	15218.635742		
1923.070313	15167.4375		
1924.389038	15261.541016		
1925.707764	15232.588867		
1927.026489	15310.275391		
1928.345215	15354.710938		
1929.66394	15178.203125		
1930.982666	15176.713867		
1932.301392	15352.515625		
1933.620117	15086.098633		
1934.938843	15416.482422		
1936.257568	15253.604492		
1937.576294	15289.029297		
1938.89502	15200.894531		
1940.213745	15461.317383		
1941.532471	15356.844727		
1942.851196	15151.579102		
1944.169922	15358.916016		
1945.488647	15401.466797		
1946.807373	15380.655273		
1948.126099	15479.139648		
1949.444824	15387.357422		
1950.76355	15544.392578		
1952.082275	15383.712891		
1953.401001	15308.300781		
1954.719727	15282.574219		
1956.038452	15415.272461		
1957.357178	15361.035156		
1958.675903	15288.519531		
1959.994629	15313.989258		
1961.313354	15434.274414		
1962.63208	15301.890625		
1963.950806	15349.900391		
1965.269531	15465.121094		
1966.588257	15482.345703		
1967.906982	15611.93457		
1969.225708	15514.754883		
1970.544434	15663.177734		
1971.863159	15570.236328		
1973.181885	15586.088867		
1974.50061	15418.28418		
1975.819336	15492.754883		
1977.138062	15437.143555		
1978.456787	15663.916992		
1979.775513	15580.31543		
1981.094238	15649.063477		
1982.412964	15802.857422		
1983.731689	15755.993164		
1985.050415	15754.764648		
1986.369141	15602.675781		
1987.687866	15797.943359		
1989.006592	15703.131836		
1990.325317	15603.892578		
1991.644043	15625.339844		
1992.962769	15694.25293		
1994.281494	15712.848633		
1995.60022	15646.412109		
1996.918945	15720.798828		
1998.237671	15797.061523		
1999.556396	15892.152344		
2000.875122	15888.294922		
2002.193848	15907.568359		
2003.512573	15943.796875		
2004.831299	15845.270508		
2006.150024	15875.054688		
2007.46875	15931.181641		
2008.787476	15838.787109		
2010.106201	15819.34668		
2011.424927	15960.191406		
2012.743652	15806.272461		
2014.062378	15797.672852		
2015.381104	15852.708984		
2016.699829	15884.25293		
2018.018555	15673.03125		
2019.33728	15842.209961		
2020.656006	15973.933594		
2021.974731	15889.912109		
2023.293457	15962.250977		
2024.612183	15927.712891		
2025.930908	16072.455078		
2027.249634	15901.821289		
2028.568359	16020.625977		
2029.887085	15953.396484		
2031.205811	16079.466797		
2032.524536	15965.888672		
2033.843262	15733.177734		
2035.161987	16151.927734		
2036.480713	15968.742188		
2037.799438	15967.017578		
2039.118164	15816.129883		
2040.43689	16096.692383		
2041.755615	15877.056641		
2043.074341	15789.336914		
2044.393066	15854.612305		
2045.711792	15922.544922		
2047.030518	15975.891602		
2048.349121	15780.167969		
2049.667725	16049.308594		
2050.986328	16136.222656		
2052.304932	15911.862305		
2053.623535	16075.282227		
2054.942139	16119.227539		
2056.260742	16101.021484		
2057.579346	16074.873047		
2058.897949	15999.616211		
2060.216553	16118.682617		
2061.535156	16124.327148		
2062.85376	15797.0625		
2064.172363	15998.698242		
2065.490967	16068.129883		
2066.80957	15963.455078		
2068.128174	15902.470703		
2069.446777	15929.074219		
2070.765381	15987.045898		
2072.083984	15992.5		
2073.402588	16005.266602		
2074.721191	16191.447266		
2076.039795	16121.339844		
2077.358398	16019.81543		
2078.677002	16096.899414		
2079.995605	16244.217773		
2081.314209	16258.754883		
2082.632813	16150.908203		
2083.951416	16072.495117		
2085.27002	16050.695313		
2086.588623	16231.446289		
2087.907227	16239.9375		
2089.22583	16161.992188		
2090.544434	16181.533203		
2091.863037	16306.652344		
2093.181641	16205.647461		
2094.500244	16125.263672		
2095.818848	16298.443359		
2097.137451	16279.248047		
2098.456055	16249.72168		
2099.774658	16172.234375		
2101.093262	16224.243164		
2102.411865	16302.541016		
2103.730469	16260.511719		
2105.049072	16397.355469		
2106.367676	16203.827148		
2107.686279	16411.701172		
2109.004883	16422.074219		
2110.323486	16283.313477		
2111.64209	16276.798828		
2112.960693	16434.591797		
2114.279297	16481.859375		
2115.5979	16461.818359		
2116.916504	16456.482422		
2118.235107	16549.431641		
2119.553711	16580.923828		
2120.872314	16492.697266		
2122.190918	16377.223633		
2123.509521	16402.650391		
2124.828125	16458.423828		
2126.146729	16460.238281		
2127.465332	16497.421875		
2128.783936	16604.011719		
2130.102539	16435.345703		
2131.421143	16555.015625		
2132.739746	16598.142578		
2134.05835	16422.482422		
2135.376953	16597.201172		
2136.695557	16556.130859		
2138.01416	16423.037109		
2139.332764	16465.705078		
2140.651367	16619.9375		
2141.969971	16552.136719		
2143.288574	16443.644531		
2144.607178	16520.109375		
2145.925781	16369.611328		
2147.244385	16405.132813		
2148.562988	16557.533203		
2149.881592	16517.429688		
2151.200195	16759.382813		
2152.518799	16627.720703		
2153.837402	16666.779297		
2155.156006	16553.720703		
2156.474609	16520.736328		
2157.793213	16600.017578		
2159.111816	16727.566406		
2160.43042	16612.712891		
2161.749023	16583.517578		
2163.067627	16639.777344		
2164.38623	16580.955078		
2165.704834	16519.939453		
2167.023438	16477.34375		
2168.342041	16567.310547		
2169.660645	16443.255859		
2170.979248	16475.755859		
2172.297852	16731.068359		
2173.616455	16583.435547		
2174.935059	16584.923828		
2176.253662	16517.263672		
2177.572266	16734.371094		
2178.890869	16660.470703		
2180.209473	16643.541016		
2181.528076	16532.701172		
2182.84668	16869.820313		
2184.165283	16762.736328		
2185.483887	16562.267578		
2186.80249	16659.333984		
2188.121094	16861.271484		
2189.439697	16800.212891		
2190.758301	16782.359375		
2192.076904	16733.191406		
2193.395508	16708.142578		
2194.714111	16790.605469		
2196.032715	16645.490234		
2197.351318	16712.9375		
2198.669922	16683.658203		
2199.988525	16628.976563		
2201.307129	16774.480469		
2202.625732	16711.6875		
2203.944336	16596.613281		
2205.262939	16669.429688		
2206.581543	16731.091797		
2207.900146	16638.955078		
2209.21875	16613.054688		
2210.537354	16830.117188		
2211.855957	16946.929688		
2213.174561	16686.740234		
2214.493164	16705.191406		
2215.811768	16623.431641		
2217.130371	16832.712891		
2218.448975	16813.441406		
2219.767578	16832.875		
2221.086182	16951.710938		
2222.404785	16827.339844		
2223.723389	16798.001953		
2225.041992	16879.074219		
2226.360596	16814.005859		
2227.679199	16761.705078		
2228.997803	16793.101563		
2230.316406	16761.464844		
2231.63501	16695.886719		
2232.953613	16830.871094		
2234.272217	16947.177734		
2235.59082	16905.267578		
2236.909424	16713.845703		
2238.228027	16822.251953		
2239.546631	16978.244141		
2240.865234	17142.693359		
2242.183838	16964.236328		
2243.502441	17090.544922		
2244.821045	16841.078125		
2246.139648	16932.128906		
2247.458252	16891.859375		
2248.776855	16708.990234		
2250.095459	16876.076172		
2251.414063	17062.916016		
2252.732666	16869.998047		
2254.05127	16853.533203		
2255.369873	17058.652344		
2256.688477	17079.085938		
2258.00708	16978.244141		
2259.325684	16838.626953		
2260.644287	16788.402344		
2261.962891	16881.189453		
2263.281494	17047.970703		
2264.600098	17085.136719		
2265.918701	16918.107422		
2267.237305	16778.050781		
2268.555908	16963.130859		
2269.874512	16810.875		
2271.193115	16953.386719		
2272.511719	16889.169922		
2273.830322	17128.048828		
2275.148926	17195.869141		
2276.467529	17050.572266		
2277.786133	17040.419922		
2279.104736	17093.173828		
2280.42334	17053.658203		
2281.741943	16952.796875		
2283.060547	17008.40625		
2284.37915	17052.794922		
2285.697754	17002.025391		
2287.016357	17059.134766		
2288.334961	16986.359375		
2289.653564	17203.984375		
2290.972168	17073.1875		
2292.290771	17034.923828		
2293.609375	17087.107422		
2294.927979	16971.410156		
2296.246582	17013.710938		
2297.565186	16981.789063		
2298.883789	16986.679688		
2300.202393	17002.103516		
2301.520996	17151.474609		
2302.8396	17133.654297		
2304.158203	17092.767578		
2305.476807	16949.925781		
2306.79541	16896.771484		
2308.114014	17023.429688		
2309.432617	17035.564453		
2310.751221	17166.699219		
2312.069824	17125.871094		
2313.388428	17170.228516		
2314.707031	17032.392578		
2316.025635	17203.833984		
2317.344238	17109.441406		
2318.662842	17019.505859		
2319.981445	17093.875		
2321.300049	17097.970703		
2322.618652	17072.289063		
2323.937256	17173.300781		
2325.255859	17094.876953		
2326.574463	17174.757813		
2327.893066	17211.453125		
2329.21167	17054.628906		
2330.530273	17163.544922		
2331.848877	17314.380859		
2333.16748	17119.396484		
2334.486084	17163.201172		
2335.804688	17197.46875		
2337.123291	17273.0625		
2338.441895	17209.304688		
2339.760498	17191.896484		
2341.079102	17226.017578		
2342.397705	17318.886719		
2343.716309	17368.230469		
2345.034912	17362.044922		
2346.353516	17234.919922		
2347.672119	17425.533203		
2348.990723	17481.240234		
2350.309326	17476.806641		
2351.62793	17348.486328		
2352.946533	17173.095703		
2354.265137	17147.253906		
2355.58374	17289.367188		
2356.902344	17433.34375		
2358.220947	17261.318359		
2359.539551	17293.277344		
2360.858154	17228.511719		
2362.176758	17441.167969		
2363.495361	17503.689453		
2364.813965	17354.310547		
2366.132568	17308.072266		
2367.451172	17265.619141		
2368.769775	17413.425781		
2370.088379	17483.332031		
2371.406982	17630.878906		
2372.725586	17456.423828		
2374.044189	17469.425781		
2375.362793	17585.076172		
2376.681396	17403.410156		
2378.0	17544.613281		
2379.318604	17501.0625		
2380.637207	17633.566406		
2381.955811	17382.683594		
2383.274414	17568.582031		
2384.593018	17571.498047		
2385.911621	17624.427734		
2387.230225	17575.791016		
2388.548828	17499.542969		
2389.867432	17393.015625		
2391.186035	17546.798828		
2392.504639	17558.251953		
2393.823242	17582.888672		
2395.141846	17482.894531		
2396.460449	17674.109375		
2397.779053	17439.943359		
2399.097656	17495.273438		
2400.41626	17591.023438		
2401.734863	17440.625		
2403.053467	17523.136719		
2404.37207	17575.445313		
2405.690674	17553.958984		
2407.009277	17669.589844		
2408.327881	17706.802734		
2409.646484	17590.867188		
2410.965088	17519.960938		
2412.283691	17438.195313		
2413.602295	17530.599609		
2414.920898	17630.449219		
2416.239502	17582.980469		
2417.558105	17556.603516		
2418.876709	17436.177734		
2420.195313	17311.591797		
2421.513916	17586.880859		
2422.83252	17792.443359		
2424.151123	17775.044922		
2425.469727	17527.425781		
2426.78833	17480.136719		
2428.106934	17681.210938		
2429.425537	17586.755859		
2430.744141	17590.052734		
2432.062744	17400.115234		
2433.381348	17794.494141		
2434.699951	17942.464844		
2436.018555	17501.78125		
2437.337158	17643.40625		
2438.655762	17509.601563		
2439.974365	17504.027344		
2441.292969	17741.083984		
2442.611572	17737.433594		
2443.930176	17669.693359		
2445.248779	17585.685547		
2446.567383	17737.027344		
2447.885986	17727.962891		
2449.20459	17736.888672		
2450.523193	17722.845703		
2451.841797	17676.746094		
2453.1604	17567.21875		
2454.479004	17600.28125		
2455.797607	17835.496094		
2457.116211	17696.478516		
2458.434814	17660.884766		
2459.753418	17748.607422		
2461.072021	17725.492188		
2462.390625	17646.052734		
2463.709229	17661.855469		
2465.027832	17649.347656		
2466.346436	17723.865234		
2467.665039	17742.335938		
2468.983643	17874.787109		
2470.302246	17875.464844		
2471.62085	17761.609375		
2472.939453	17883.101563		
2474.258057	17944.583984		
2475.57666	17846.429688		
2476.895264	17815.324219		
2478.213867	17760.986328		
2479.532471	17781.578125		
2480.851074	17819.345703		
2482.169678	17755.78125		
2483.488281	17862.888672		
2484.806885	17972.496094		
2486.125488	17922.783203		
2487.444092	17905.445313		
2488.762695	17755.951172		
2490.081299	17865.068359		
2491.399902	17744.689453		
2492.718506	17900.517578		
2494.037109	18010.851563		
2495.355713	17915.898438		
2496.674316	17903.416016		
2497.99292	18028.466797		
2499.311523	17894.666016		
2500.630127	17982.927734		
2501.94873	17868.894531		
2503.267334	17806.771484		
2504.585938	17978.902344		
2505.904541	17902.916016		
2507.223145	18105.347656		
2508.541748	18054.625		
2509.860352	17905.011719		
2511.178955	17922.150391		
2512.497559	17809.339844		
2513.816162	17833.943359		
2515.134766	18026.396484		
2516.453369	18004.488281		
2517.771973	17884.630859		
2519.090576	18134.082031		
2520.40918	18112.115234		
2521.727783	17916.355469		
2523.046387	17903.429688		
2524.36499	17973.322266		
2525.683594	17945.53125		
2527.002197	18030.658203		
2528.320801	17787.421875		
2529.639404	17972.462891		
2530.958008	17909.597656		
2532.276611	17880.09375		
2533.595215	18026.648438		
2534.913818	17961.556641		
2536.232422	17970.466797		
2537.551025	17956.763672		
2538.869629	17860.371094		
2540.188232	17734.001953		
2541.506836	17815.509766		
2542.825439	17825.916016		
2544.144043	17923.923828		
2545.462646	18054.595703		
2546.78125	17985.617188		
2548.099854	17880.71875		
2549.418457	17959.113281		
2550.737061	17862.873047		
2552.055664	17742.650391		
2553.374268	17610.714844		
2554.692871	17830.738281		
2556.011475	18094.917969		
2557.330078	17895.53125		
2558.648682	17944.666016		
2559.967285	18154.933594		
2561.285889	17892.181641		
2562.604492	18003.111328		
2563.923096	18085.130859		
2565.241699	18007.720703		
2566.560303	17967.5		
2567.878906	18038.884766		
2569.19751	18100.507813		
2570.516113	17974.417969		
2571.834717	18075.271484		
2573.15332	17995.925781		
2574.471924	17780.064453		
2575.790527	17921.820313		
2577.109131	18107.90625		
2578.427734	17936.445313		
2579.746338	17958.40625		
2581.064941	18118.78125		
2582.383545	18142.263672		
2583.702148	18145.4375		
2585.020752	18191.306641		
2586.339355	18055.552734		
2587.657959	18058.558594		
2588.976563	18039.402344		
2590.295166	18058.251953		
2591.61377	17963.828125		
2592.932373	18022.496094		
2594.250977	18080.248047		
2595.56958	18240.130859		
2596.888184	18300.658203		
2598.206787	18161.503906		
2599.525391	18150.548828		
2600.843994	18185.611328		
2602.162598	17964.197266		
2603.481201	18223.943359		
2604.799805	18191.685547		
2606.118408	18132.851563		
2607.437012	18149.970703		
2608.755615	18279.761719		
2610.074219	18299.041016		
2611.392822	18216.568359		
2612.711426	18365.611328		
2614.030029	18356.464844		
2615.348633	18434.035156		
2616.667236	18361.707031		
2617.98584	18119.441406		
2619.304443	18180.408203		
2620.623047	18173.576172		
2621.94165	18290.375		
2623.260254	18290.748047		
2624.578857	18277.664063		
2625.897461	18216.21875		
2627.216064	18136.675781		
2628.534668	18272.056641		
2629.853271	18416.941406		
2631.171875	18271.09375		
2632.490479	18347.664063		
2633.809082	18381.21875		
2635.127686	18455.666016		
2636.446289	18254.759766		
2637.764893	18305.941406		
2639.083496	18519.806641		
2640.4021	18436.263672		
2641.720703	18388.205078		
2643.039307	18471.300781		
2644.35791	18468.609375		
2645.676514	18447.177734		
2646.995117	18352.462891		
2648.313721	18314.138672		
2649.632324	18287.294922		
2650.950928	18482.330078		
2652.269531	18373.738281		
2653.588135	18276.142578		
2654.906738	18522.521484		
2656.225342	18464.589844		
2657.543945	18383.785156		
2658.862549	18541.228516		
2660.181152	18349.464844		
2661.499756	18401.460938		
2662.818359	18326.492188		
2664.136963	18533.898438		
2665.455566	18571.720703		
2666.77417	18475.058594		
2668.092773	18394.087891		
2669.411377	18317.923828		
2670.72998	18457.173828		
2672.048584	18282.039063		
2673.367188	18312.835938		
2674.685791	18450.722656		
2676.004395	18559.53125		
2677.322998	18347.207031		
2678.641602	18362.457031		
2679.960205	18470.828125		
2681.278809	18523.273438		
2682.597412	18474.927734		
2683.916016	18328.304688		
2685.234619	18464.082031		
2686.553223	18346.363281		
2687.871826	18448.90625		
2689.19043	18412.416016		
2690.509033	18448.224609		
2691.827637	18502.460938		
2693.14624	18441.166016		
2694.464844	18420.800781		
2695.783447	18438.070313		
2697.102051	18632.837891		
2698.420654	18309.96875		
2699.739258	18506.955078		
2701.057861	18285.607422		
2702.376465	18486.304688		
2703.695068	18495.199219		
2705.013672	18440.671875		
2706.332275	18608.265625		
2707.650879	18439.542969		
2708.969482	18608.875		
2710.288086	18384.210938		
2711.606689	18482.085938		
2712.925293	18513.890625		
2714.243896	18548.199219		
2715.5625	18418.298828		
2716.881104	18460.263672		
2718.199707	18480.810547		
2719.518311	18477.464844		
2720.836914	18364.609375		
2722.155518	18772.34375		
2723.474121	18631.162109		
2724.792725	18612.097656		
2726.111328	18707.867188		
2727.429932	18622.519531		
2728.748535	18510.583984		
2730.067139	18455.828125		
2731.385742	18556.277344		
2732.704346	18479.904297		
2734.022949	18475.566406		
2735.341553	18463.326172		
2736.660156	18525.308594		
2737.97876	18554.15625		
2739.297363	18611.089844		
2740.615967	18490.263672		
2741.93457	18453.28125		
2743.253174	18706.1875		
2744.571777	18356.349609		
2745.890381	18495.630859		
2747.208984	18470.595703		
2748.527588	18597.164063		
2749.846191	18544.482422		
2751.164795	18706.34375		
2752.483398	18352.886719		
2753.802002	18480.714844		
2755.120605	18741.458984		
2756.439209	18527.582031		
2757.757813	18559.169922		
2759.076416	18430.958984		
2760.39502	18509.236328		
2761.713623	18471.431641		
2763.032227	18474.09375		
2764.35083	18742.097656		
2765.669434	18525.921875		
2766.988037	18567.644531		
2768.306641	18460.046875		
2769.625244	18500.490234		
2770.943848	18574.337891		
2772.262451	18552.164063		
2773.581055	18701.585938		
2774.899658	18608.046875		
2776.218262	18330.771484		
2777.536865	18477.28125		
2778.855469	18553.119141		
2780.174072	18636.929688		
2781.492676	18387.560547		
2782.811279	18645.080078		
2784.129883	18302.765625		
2785.448486	18532.955078		
2786.76709	18450.511719		
2788.085693	18658.892578		
2789.404297	18469.863281		
2790.7229	18529.539063		
2792.041504	18586.298828		
2793.360107	18539.830078		
2794.678711	18699.982422		
2795.997314	18562.734375		
2797.315918	18620.978516		
2798.634521	18529.076172		
2799.953125	18673.308594		
2801.271729	18840.589844		
2802.590332	18753.253906		
2803.908936	18656.947266		
2805.227539	18586.826172		
2806.546143	18569.353516		
2807.864746	18562.902344		
2809.18335	18523.814453		
2810.501953	18692.349609		
2811.820557	18506.982422		
2813.13916	18616.861328		
2814.457764	18867.568359		
2815.776367	18549.980469		
2817.094971	18691.664063		
2818.413574	18716.40625		
2819.732178	18634.636719		
2821.050781	18550.841797		
2822.369385	18563.796875		
2823.687988	18745.210938		
2825.006592	18539.501953		
2826.325195	18861.113281		
2827.643799	18632.208984		
2828.962402	18675.335938		
2830.281006	18708.630859		
2831.599609	18776.828125		
2832.918213	18882.791016		
2834.236816	18788.390625		
2835.55542	18620.582031		
2836.874023	18728.654297		
2838.192627	18644.001953		
2839.51123	18778.660156		
2840.829834	18811.375		
2842.148438	18614.556641		
2843.467041	18670.429688		
2844.785645	18571.576172		
2846.104248	18809.636719		
2847.422852	18844.636719		
2848.741455	18783.048828		
2850.060059	18779.746094		
2851.378662	18687.527344		
2852.697266	18698.867188		
2854.015869	18867.417969		
2855.334473	18848.728516		
2856.653076	18853.753906		
2857.97168	18683.201172		
2859.290283	18953.601563		
2860.608887	18787.710938		
2861.92749	18886.363281		
2863.246094	18823.8125		
2864.564697	19078.841797		
2865.883301	18911.183594		
2867.201904	18965.324219		
2868.520508	18851.451172		
2869.839111	18818.259766		
2871.157715	18855.351563		
2872.476318	18806.628906		
2873.794922	19074.830078		
2875.113525	18843.017578		
2876.432129	18673.431641		
2877.750732	18938.990234		
2879.069336	18699.972656		
2880.387939	18983.40625		
2881.706543	18778.626953		
2883.025146	18765.447266		
2884.34375	18730.980469		
2885.662354	18931.919922		
2886.980957	19058.568359		
2888.299561	18980.447266		
2889.618164	19055.326172		
2890.936768	19051.849609		
2892.255371	18776.894531		
2893.573975	18907.501953		
2894.892578	18811.871094		
2896.211182	19096.685547		
2897.529785	19149.841797		
2898.848389	19085.173828		
2900.166992	18891.023438		
2901.485596	18741.837891		
2902.804199	18931.146484		
2904.122803	18721.304688		
2905.441406	18839.488281		
2906.76001	19019.533203		
2908.078613	18878.449219		
2909.397217	19212.294922		
2910.71582	18943.240234		
2912.034424	18834.90625		
2913.353027	18717.109375		
2914.671631	19011.376953		
2915.990234	19023.033203		
2917.308838	18806.666016		
2918.627441	19068.484375		
2919.946045	19022.6875		
2921.264648	18910.347656		
2922.583252	19070.564453		
2923.901855	18887.357422		
2925.220459	18909.34375		
2926.539063	18843.580078		
2927.857666	18859.738281		
2929.17627	18972.796875		
2930.494873	18907.396484		
2931.813477	18764.205078		
2933.13208	18975.222656		
2934.450684	18945.373047		
2935.769287	18979.369141		
2937.087891	19086.304688		
2938.406494	18984.794922		
2939.725098	18902.677734		
2941.043701	19050.900391		
2942.362305	19117.626953		
2943.680908	19163.705078		
2944.999512	18991.167969		
2946.318115	18891.929688		
2947.636719	18999.214844		
2948.955322	19041.513672		
2950.273926	19103.621094		
2951.592529	19182.642578		
2952.911133	19244.013672		
2954.229736	19163.082031		
2955.54834	19084.613281		
2956.866943	18917.630859		
2958.185547	19059.078125		
2959.50415	19088.871094		
2960.822754	19073.068359		
2962.141357	19095.580078		
2963.459961	18941.955078		
2964.778564	18975.585938		
2966.097168	18890.251953		
2967.415771	18886.054688		
2968.734375	19008.046875		
2970.052979	19090.191406		
2971.371582	18934.744141		
2972.690186	18970.59375		
2974.008789	18989.849609		
2975.327393	19024.222656		
2976.645996	18819.53125		
2977.9646	18952.910156		
2979.283203	18964.720703		
2980.601807	19061.591797		
2981.92041	19142.892578		
2983.239014	19074.117188		
2984.557617	19200.585938		
2985.876221	19150.273438		
2987.194824	19113.826172		
2988.513428	19018.509766		
2989.832031	19073.080078		
2991.150635	18886.900391		
2992.469238	18952.371094		
2993.787842	19162.222656		
2995.106445	19020.941406		
2996.425049	19026.404297		
2997.743652	19030.1875		
2999.062256	19016.652344		
3000.380859	19011.365234		
