Unnamed: 1	#Wave	Unnamed: 3	#Intensity
699.292969	4864.333984		
700.611694	4875.554199		
701.93042	5024.854004		
703.249146	5019.275391		
704.567871	4942.544922		
705.886597	4943.130859		
707.205322	5042.284668		
708.524048	5074.046875		
709.842773	5057.982422		
711.161499	4996.868652		
712.480225	4980.286133		
713.79895	4970.737305		
715.117676	5025.135254		
716.436401	5150.749512		
717.755127	5103.692871		
719.073853	5141.144043		
720.392578	5036.040527		
721.711304	5045.562012		
723.030029	5127.922852		
724.348755	5167.481934		
725.66748	5148.995605		
726.986206	5195.520996		
728.304932	5151.14502		
729.623657	5207.116699		
730.942383	5139.497559		
732.261108	5122.615723		
733.579834	5159.966797		
734.89856	5183.564453		
736.217285	5186.947266		
737.536011	5295.384766		
738.854736	5218.437988		
740.173462	5217.689453		
741.492188	5229.32959		
742.810913	5196.663086		
744.129639	5201.569824		
745.448364	5285.665527		
746.76709	5194.925781		
748.085815	5226.944336		
749.404541	5216.708984		
750.723267	5263.491699		
752.041992	5246.118164		
753.360718	5194.459473		
754.679443	5189.989746		
755.998169	5226.159668		
757.316895	5261.100098		
758.63562	5333.418945		
759.954346	5295.157227		
761.273071	5231.04541		
762.591797	5182.348145		
763.910522	5211.690918		
765.229248	5313.601074		
766.547974	5253.150391		
767.866699	5219.791992		
769.185425	5260.436035		
770.50415	5320.333984		
771.822876	5336.89502		
773.141602	5301.925293		
774.460327	5270.389648		
775.779053	5299.884766		
777.097778	5273.560547		
778.416504	5426.62793		
779.735229	5398.525391		
781.053955	5360.234375		
782.372681	5383.46875		
783.691406	5407.790527		
785.010132	5361.096191		
786.328857	5315.892578		
787.647583	5303.854492		
788.966309	5373.796875		
790.285034	5412.949707		
791.60376	5383.045898		
792.922485	5344.367188		
794.241211	5379.737305		
795.559937	5487.830566		
796.878662	5497.083984		
798.197388	5440.537598		
799.516113	5456.880371		
800.834839	5461.700195		
802.153564	5433.30957		
803.47229	5441.150879		
804.791016	5499.637695		
806.109741	5517.213379		
807.428467	5624.723145		
808.747192	5514.821289		
810.065918	5551.741699		
811.384644	5565.666016		
812.703369	5623.150391		
814.022095	5613.380371		
815.34082	5513.165527		
816.659546	5672.580078		
817.978271	5582.595215		
819.296997	5668.100586		
820.615723	5658.287109		
821.934448	5665.905273		
823.253174	5661.177246		
824.571899	5617.801758		
825.890625	5596.835938		
827.209351	5683.224609		
828.528076	5632.062012		
829.846802	5590.406738		
831.165527	5580.425293		
832.484253	5634.0625		
833.802979	5666.101074		
835.121704	5633.94873		
836.44043	5606.772949		
837.759155	5678.183594		
839.077881	5654.440918		
840.396606	5733.557129		
841.715332	5769.64502		
843.034058	5718.106934		
844.352783	5688.378906		
845.671509	5691.935547		
846.990234	5670.597656		
848.30896	5725.309082		
849.627686	5659.346191		
850.946411	5752.568359		
852.265137	5781.720215		
853.583862	5704.888184		
854.902588	5719.150879		
856.221313	5796.761719		
857.540039	5753.499512		
858.858765	5694.648438		
860.17749	5695.562988		
861.496216	5790.601074		
862.814941	5786.877441		
864.133667	5751.776855		
865.452393	5796.75293		
866.771118	5829.46582		
868.089844	5753.738281		
869.408569	5765.71875		
870.727295	5830.950195		
872.046021	5843.613281		
873.364746	5830.416504		
874.683472	5815.378906		
876.002197	5846.48291		
877.320923	5897.972168		
878.639648	5913.012207		
879.958374	5876.904785		
881.2771	5769.0		
882.595825	5849.066895		
883.914551	5975.114258		
885.233276	5904.15332		
886.552002	5868.355957		
887.870728	5943.769043		
889.189453	6001.750977		
890.508179	5941.184082		
891.826904	5926.875977		
893.14563	6043.905762		
894.464355	5989.143555		
895.783081	6030.206055		
897.101807	5997.342285		
898.420532	6022.886719		
899.739258	6088.752441		
901.057983	6060.552246		
902.376709	6110.374512		
903.695435	6008.241211		
905.01416	6040.237305		
906.332886	5959.639648		
907.651611	5978.942383		
908.970337	6018.895508		
910.289063	6083.228516		
911.607788	6125.631836		
912.926514	6017.985352		
914.245239	6149.55957		
915.563965	6089.985352		
916.88269	6214.280273		
918.201416	6109.631348		
919.520142	6068.622559		
920.838867	6108.845703		
922.157593	6133.041016		
923.476318	6131.281738		
924.795044	6140.200195		
926.11377	6117.494629		
927.432495	6091.848145		
928.751221	6152.903809		
930.069946	6152.940918		
931.388672	6133.233398		
932.707397	6127.633789		
934.026123	6126.727539		
935.344849	6142.020996		
936.663574	6241.560547		
937.9823	6180.192383		
939.301025	6212.005371		
940.619751	6195.005859		
941.938477	6144.592773		
943.257202	6169.576172		
944.575928	6222.389648		
945.894653	6193.532715		
947.213379	6133.459961		
948.532104	6206.708008		
949.85083	6177.887695		
951.169556	6227.508789		
952.488281	6208.479004		
953.807007	6207.591309		
955.125732	6238.958496		
956.444458	6248.206543		
957.763184	6233.15332		
959.081909	6260.912598		
960.400635	6157.63916		
961.71936	6239.277832		
963.038086	6309.049316		
964.356812	6286.969238		
965.675537	6267.734863		
966.994263	6288.053711		
968.312988	6306.820313		
969.631714	6311.516602		
970.950439	6359.375		
972.269165	6298.472168		
973.587891	6311.488281		
974.906616	6351.162109		
976.225342	6343.737793		
977.544067	6388.963379		
978.862793	6398.951172		
980.181519	6379.371582		
981.500244	6401.624512		
982.81897	6382.648438		
984.137695	6429.335449		
985.456421	6364.21582		
986.775146	6396.342773		
988.093872	6411.496582		
989.412598	6449.004395		
990.731323	6440.433105		
992.050049	6471.521973		
993.368774	6587.043457		
994.6875	6556.117676		
996.006226	6453.671387		
997.324951	6495.430664		
998.643677	6439.943848		
999.962402	6450.986328		
1001.281128	6483.788086		
1002.599854	6487.657715		
1003.918579	6486.766113		
1005.237305	6535.023438		
1006.55603	6590.854004		
1007.874756	6488.481445		
1009.193481	6664.931641		
1010.512207	6589.442871		
1011.830933	6602.949707		
1013.149658	6631.447266		
1014.468384	6645.539551		
1015.787109	6623.456543		
1017.105835	6562.753906		
1018.424561	6513.496582		
1019.743286	6555.141602		
1021.062012	6646.114258		
1022.380737	6592.598145		
1023.699463	6649.733398		
1025.018188	6705.385742		
1026.336914	6694.970703		
1027.65564	6705.072754		
1028.974365	6668.907227		
1030.293091	6599.754883		
1031.611816	6717.416016		
1032.930542	6710.716797		
1034.249268	6761.992188		
1035.567993	6768.321289		
1036.886719	6757.170898		
1038.205444	6684.768066		
1039.52417	6700.730469		
1040.842896	6707.113281		
1042.161621	6673.050781		
1043.480347	6718.603516		
1044.799072	6772.909668		
1046.117798	6769.01123		
1047.436523	6652.512695		
1048.755249	6684.320801		
1050.073975	6696.612305		
1051.3927	6689.20752		
1052.711426	6722.106445		
1054.030151	6746.0625		
1055.348877	6723.336426		
1056.667603	6719.759277		
1057.986328	6753.660645		
1059.305054	6770.290039		
1060.623779	6818.880371		
1061.942505	6783.84082		
1063.26123	6785.75293		
1064.579956	6806.816895		
1065.898682	6789.85498		
1067.217407	6790.299805		
1068.536133	6798.863281		
1069.854858	6739.239746		
1071.173584	6807.866699		
1072.49231	6815.209473		
1073.811035	6913.112305		
1075.129761	6793.561523		
1076.448486	6948.962891		
1077.767212	6911.249512		
1079.085938	6906.550781		
1080.404663	6956.836914		
1081.723389	6893.557129		
1083.042114	6815.235352		
1084.36084	6797.583984		
1085.679565	6866.827637		
1086.998291	6827.884277		
1088.317017	6987.628906		
1089.635742	6929.631836		
1090.954468	6885.943848		
1092.273193	6936.410156		
1093.591919	6996.288574		
1094.910645	7058.022949		
1096.22937	7131.428223		
1097.548096	7035.974609		
1098.866821	7013.009277		
1100.185547	7086.792969		
1101.504272	7068.634766		
1102.822998	7020.600098		
1104.141724	7084.938965		
1105.460449	7157.398438		
1106.779175	7166.132813		
1108.0979	7103.816406		
1109.416626	7078.529785		
1110.735352	7197.461426		
1112.054077	7039.929199		
1113.372803	7185.432617		
1114.691528	7066.556152		
1116.010254	7100.852539		
1117.328979	7093.072266		
1118.647705	7116.895508		
1119.966431	7133.361816		
1121.285156	7135.360352		
1122.603882	7117.674316		
1123.922607	7105.137695		
1125.241333	7278.557617		
1126.560059	7168.317871		
1127.878784	7166.377441		
1129.19751	7045.646973		
1130.516235	7167.088867		
1131.834961	7231.89209		
1133.153687	7229.726074		
1134.472412	7207.347168		
1135.791138	7197.970215		
1137.109863	7210.256348		
1138.428589	7200.882813		
1139.747314	7161.947266		
1141.06604	7338.448242		
1142.384766	7191.262695		
1143.703491	7235.259277		
1145.022217	7302.73877		
1146.340942	7337.047363		
1147.659668	7259.740723		
1148.978394	7231.094238		
1150.297119	7272.721191		
1151.615845	7286.202148		
1152.93457	7350.138672		
1154.253296	7308.520996		
1155.572021	7208.06543		
1156.890747	7187.282715		
1158.209473	7153.736328		
1159.528198	7210.961426		
1160.846924	7252.990723		
1162.165649	7290.725586		
1163.484375	7301.632813		
1164.803101	7329.354492		
1166.121826	7382.223145		
1167.440552	7360.466797		
1168.759277	7415.623535		
1170.078003	7201.07959		
1171.396729	7343.92041		
1172.715454	7384.050293		
1174.03418	7395.776367		
1175.352905	7418.152832		
1176.671631	7436.259766		
1177.990356	7424.195801		
1179.309082	7392.106445		
1180.627808	7367.645508		
1181.946533	7366.533691		
1183.265259	7405.018555		
1184.583984	7457.131836		
1185.90271	7486.818359		
1187.221436	7514.967285		
1188.540161	7445.127441		
1189.858887	7482.895996		
1191.177612	7519.182617		
1192.496338	7538.964355		
1193.815063	7519.662598		
1195.133789	7486.622559		
1196.452515	7531.79248		
1197.77124	7598.929199		
1199.089966	7488.623047		
1200.408691	7575.463379		
1201.727417	7659.088867		
1203.046143	7490.91748		
1204.364868	7538.344238		
1205.683594	7591.144043		
1207.002319	7583.638672		
1208.321045	7568.050293		
1209.639771	7578.393066		
1210.958496	7648.461426		
1212.277222	7721.810547		
1213.595947	7634.40332		
1214.914673	7733.303711		
1216.233398	7705.934082		
1217.552124	7650.014648		
1218.87085	7733.77002		
1220.189575	7756.975586		
1221.508301	7715.772461		
1222.827026	7759.390625		
1224.145752	7776.223145		
1225.464478	7693.410156		
1226.783203	7659.670898		
1228.101929	7703.794922		
1229.420654	7623.854004		
1230.73938	7761.790039		
1232.058105	7783.705078		
1233.376831	7772.197266		
1234.695557	7686.044922		
1236.014282	7756.866211		
1237.333008	7716.941406		
1238.651733	7640.987305		
1239.970459	7676.702637		
1241.289185	7804.674805		
1242.60791	7860.171875		
1243.926636	7785.425293		
1245.245361	7754.879395		
1246.564087	7831.837891		
1247.882813	7850.986328		
1249.201538	7789.70752		
1250.520264	7783.245605		
1251.838989	7771.414063		
1253.157715	7925.165039		
1254.47644	7827.109375		
1255.795166	7804.27832		
1257.113892	7818.94873		
1258.432617	7798.931641		
1259.751343	7804.095703		
1261.070068	7760.439453		
1262.388794	7873.004395		
1263.70752	8014.720215		
1265.026245	7757.807129		
1266.344971	7670.411621		
1267.663696	7749.405762		
1268.982422	7853.425781		
1270.301147	7918.275879		
1271.619873	7928.581055		
1272.938599	7909.131836		
1274.257324	7860.265137		
1275.57605	7853.183105		
1276.894775	7917.901855		
1278.213501	7944.235352		
1279.532227	7938.439453		
1280.850952	7851.671387		
1282.169678	7943.035156		
1283.488403	7915.1875		
1284.807129	7870.930664		
1286.125854	7870.20166		
1287.44458	7908.714844		
1288.763306	8014.073242		
1290.082031	7952.660645		
1291.400757	7953.697266		
1292.719482	8034.313965		
1294.038208	7997.730469		
1295.356934	8020.571777		
1296.675659	8095.273926		
1297.994385	8100.025879		
1299.31311	8032.047852		
1300.631836	8082.159668		
1301.950562	8079.665527		
1303.269287	8094.356445		
1304.588013	8052.678711		
1305.906738	8072.009766		
1307.225464	8117.032227		
1308.544189	8164.523926		
1309.862915	8149.631348		
1311.181641	8134.661621		
1312.500366	8201.900391		
1313.819092	8195.545898		
1315.137817	8171.188477		
1316.456543	8248.768555		
1317.775269	8232.955078		
1319.093994	8116.657715		
1320.41272	8179.902344		
1321.731445	8160.187988		
1323.050171	8158.222168		
1324.368896	8199.308594		
1325.687622	8249.591797		
1327.006348	8246.612305		
1328.325073	8229.916016		
1329.643799	8283.147461		
1330.962524	8395.449219		
1332.28125	8462.330078		
1333.599976	8359.019531		
1334.918701	8127.908691		
1336.237427	8219.373047		
1337.556152	8306.036133		
1338.874878	8324.708008		
1340.193604	8366.306641		
1341.512329	8318.168945		
1342.831055	8270.430664		
1344.14978	8230.229492		
1345.468506	8302.670898		
1346.787231	8388.985352		
1348.105957	8350.475586		
1349.424683	8330.073242		
1350.743408	8434.711914		
1352.062134	8435.55957		
1353.380859	8428.600586		
1354.699585	8277.733398		
1356.018311	8427.491211		
1357.337036	8469.821289		
1358.655762	8317.597656		
1359.974487	8311.540039		
1361.293213	8413.733398		
1362.611938	8313.523438		
1363.930664	8366.935547		
1365.24939	8378.662109		
1366.568115	8335.118164		
1367.886841	8427.71875		
1369.205566	8436.395508		
1370.524292	8252.472656		
1371.843018	8262.101563		
1373.161743	8377.866211		
1374.480469	8386.375977		
1375.799194	8377.832031		
1377.11792	8514.336914		
1378.436646	8524.418945		
1379.755371	8575.263672		
1381.074097	8531.638672		
1382.392822	8533.936523		
1383.711548	8540.455078		
1385.030273	8465.182617		
1386.348999	8506.174805		
1387.667725	8596.169922		
1388.98645	8592.538086		
1390.305176	8596.418945		
1391.623901	8525.699219		
1392.942627	8643.280273		
1394.261353	8607.074219		
1395.580078	8500.601563		
1396.898804	8605.195313		
1398.217529	8611.166016		
1399.536255	8599.179688		
1400.85498	8594.004883		
1402.173706	8532.461914		
1403.492432	8607.091797		
1404.811157	8698.3125		
1406.129883	8627.780273		
1407.448608	8645.457031		
1408.767334	8745.917969		
1410.08606	8736.054688		
1411.404785	8735.861328		
1412.723511	8735.262695		
1414.042236	8749.914063		
1415.360962	8590.594727		
1416.679688	8714.577148		
1417.998413	8704.322266		
1419.317139	8827.063477		
1420.635864	8746.976563		
1421.95459	8746.950195		
1423.273315	8650.235352		
1424.592041	8639.871094		
1425.910767	8762.885742		
1427.229492	8773.075195		
1428.548218	8811.313477		
1429.866943	8858.061523		
1431.185669	8777.608398		
1432.504395	8714.613281		
1433.82312	8741.102539		
1435.141846	8762.609375		
1436.460571	8781.774414		
1437.779297	8751.518555		
1439.098022	8789.439453		
1440.416748	8875.163086		
1441.735474	8955.887695		
1443.054199	8798.750977		
1444.372925	8954.976563		
1445.69165	8862.493164		
1447.010376	8873.549805		
1448.329102	8951.415039		
1449.647827	8941.996094		
1450.966553	8930.662109		
1452.285278	8893.203125		
1453.604004	8902.698242		
1454.922729	8915.857422		
1456.241455	8865.293945		
1457.560181	8982.756836		
1458.878906	8913.083984		
1460.197632	8941.694336		
1461.516357	9005.385742		
1462.835083	8986.28125		
1464.153809	8853.898438		
1465.472534	8970.948242		
1466.79126	8920.803711		
1468.109985	8896.341797		
1469.428711	8948.076172		
1470.747437	9047.953125		
1472.066162	8948.341797		
1473.384888	8989.785156		
1474.703613	9041.796875		
1476.022339	9056.139648		
1477.341064	8993.723633		
1478.65979	8952.039063		
1479.978516	9068.789063		
1481.297241	9058.194336		
1482.615967	8957.054688		
1483.934692	8912.615234		
1485.253418	8892.287109		
1486.572144	9028.762695		
1487.890869	8902.959961		
1489.209595	9071.552734		
1490.52832	9004.384766		
1491.847046	9005.225586		
1493.165771	8935.925781		
1494.484497	8986.890625		
1495.803223	9040.799805		
1497.121948	9050.287109		
1498.440674	9052.84668		
1499.759399	9122.584961		
1501.078125	9122.148438		
1502.396851	9086.016602		
1503.715576	9055.642578		
1505.034302	9067.571289		
1506.353027	9136.515625		
1507.671753	9035.87793		
1508.990479	8991.939453		
1510.309204	8981.813477		
1511.62793	9113.791992		
1512.946655	9260.225586		
1514.265381	9091.358398		
1515.584106	9200.975586		
1516.902832	9211.137695		
1518.221558	9168.267578		
1519.540283	9039.927734		
1520.859009	9269.143555		
1522.177734	9246.888672		
1523.49646	9261.650391		
1524.815186	9247.134766		
1526.133911	9261.295898		
1527.452637	9259.571289		
1528.771362	9261.169922		
1530.090088	9321.495117		
1531.408813	9272.71582		
1532.727539	9243.651367		
1534.046265	9404.84375		
1535.36499	9365.130859		
1536.683716	9382.375		
1538.002441	9393.960938		
1539.321167	9280.046875		
1540.639893	9370.144531		
1541.958618	9556.374023		
1543.277344	9459.55957		
1544.596069	9383.338867		
1545.914795	9343.577148		
1547.233521	9366.915039		
1548.552246	9435.146484		
1549.870972	9336.373047		
1551.189697	9345.379883		
1552.508423	9455.119141		
1553.827148	9453.37793		
1555.145874	9403.353516		
1556.4646	9400.487305		
1557.783325	9470.005859		
1559.102051	9506.379883		
1560.420776	9517.327148		
1561.739502	9499.212891		
1563.058228	9381.607422		
1564.376953	9382.432617		
1565.695679	9508.206055		
1567.014404	9505.999023		
1568.33313	9473.133789		
1569.651855	9435.47168		
1570.970581	9521.536133		
1572.289307	9491.297852		
1573.608032	9427.958008		
1574.926758	9548.111328		
1576.245483	9462.886719		
1577.564209	9480.830078		
1578.882935	9441.785156		
1580.20166	9552.539063		
1581.520386	9415.569336		
1582.839111	9385.373047		
1584.157837	9478.948242		
1585.476563	9476.010742		
1586.795288	9460.330078		
1588.114014	9467.560547		
1589.432739	9482.384766		
1590.751465	9463.59668		
1592.07019	9482.766602		
1593.388916	9525.523438		
1594.707642	9528.788086		
1596.026367	9530.918945		
1597.345093	9466.921875		
1598.663818	9522.734375		
1599.982544	9556.694336		
1601.30127	9567.111328		
1602.619995	9664.347656		
1603.938721	9547.836914		
1605.257446	9662.067383		
1606.576172	9688.599609		
1607.894897	9591.844727		
1609.213623	9595.233398		
1610.532349	9568.151367		
1611.851074	9756.110352		
1613.1698	9707.78418		
1614.488525	9680.40332		
1615.807251	9781.149414		
1617.125977	9874.289063		
1618.444702	9654.744141		
1619.763428	9644.698242		
1621.082153	9730.682617		
1622.400879	9760.53125		
1623.719604	9724.517578		
1625.03833	9738.378906		
1626.357056	9773.0		
1627.675781	9798.126953		
1628.994507	9836.868164		
1630.313232	9849.87793		
1631.631958	9785.194336		
1632.950684	9698.466797		
1634.269409	9791.874023		
1635.588135	9784.311523		
1636.90686	9752.436523		
1638.225586	9830.633789		
1639.544312	9854.458984		
1640.863037	9933.96875		
1642.181763	9905.007813		
1643.500488	10048.1875		
1644.819214	9907.704102		
1646.137939	10038.94043		
1647.456665	9973.657227		
1648.775391	9998.625977		
1650.094116	9977.310547		
1651.412842	9961.930664		
1652.731567	9950.717773		
1654.050293	9939.951172		
1655.369019	10011.980469		
1656.687744	9971.540039		
1658.00647	9858.541016		
1659.325195	9988.942383		
1660.643921	10157.469727		
1661.962646	10122.061523		
1663.281372	10068.188477		
1664.600098	9975.791992		
1665.918823	9933.282227		
1667.237549	10042.610352		
1668.556274	10145.610352		
1669.875	10104.526367		
1671.193726	10052.170898		
1672.512451	10101.806641		
1673.831177	10072.19043		
1675.149902	9998.21582		
1676.468628	10046.511719		
1677.787354	10062.50293		
1679.106079	10034.53418		
1680.424805	10009.416992		
1681.74353	10102.820313		
1683.062256	10127.009766		
1684.380981	10078.587891		
1685.699707	10149.366211		
1687.018433	10104.53418		
1688.337158	10141.833008		
1689.655884	10202.476563		
1690.974609	10186.267578		
1692.293335	10004.772461		
1693.612061	10354.25293		
1694.930786	10143.308594		
1696.249512	9971.256836		
1697.568237	10057.573242		
1698.886963	10180.706055		
1700.205688	10128.142578		
1701.524414	10145.583008		
1702.84314	10002.552734		
1704.161865	10085.539063		
1705.480591	10110.261719		
1706.799316	10037.023438		
1708.118042	10093.254883		
1709.436768	10166.476563		
1710.755493	10119.319336		
1712.074219	10147.157227		
1713.392944	10183.123047		
1714.71167	10145.450195		
1716.030396	10128.118164		
1717.349121	10167.59668		
1718.667847	10155.475586		
1719.986572	10149.37793		
1721.305298	10151.556641		
1722.624023	10192.585938		
1723.942749	10289.083984		
1725.261475	10189.474609		
1726.5802	10145.178711		
1727.898926	10199.978516		
1729.217651	10322.368164		
1730.536377	10238.561523		
1731.855103	10366.643555		
1733.173828	10235.020508		
1734.492554	10148.191406		
1735.811279	10342.543945		
1737.130005	10355.112305		
1738.44873	10174.40332		
1739.767456	10363.62207		
1741.086182	10452.535156		
1742.404907	10401.972656		
1743.723633	10386.240234		
1745.042358	10307.231445		
1746.361084	10194.932617		
1747.67981	10422.847656		
1748.998535	10532.292969		
1750.317261	10248.607422		
1751.635986	10338.641602		
1752.954712	10351.885742		
1754.273438	10379.754883		
1755.592163	10306.847656		
1756.910889	10395.206055		
1758.229614	10387.236328		
1759.54834	10410.666992		
1760.867065	10404.712891		
1762.185791	10566.900391		
1763.504517	10541.915039		
1764.823242	10408.240234		
1766.141968	10382.829102		
1767.460693	10591.34668		
1768.779419	10592.897461		
1770.098145	10479.079102		
1771.41687	10498.648438		
1772.735596	10446.365234		
1774.054321	10451.333008		
1775.373047	10435.681641		
1776.691772	10512.201172		
1778.010498	10439.523438		
1779.329224	10334.749023		
1780.647949	10467.341797		
1781.966675	10534.398438		
1783.2854	10597.270508		
1784.604126	10594.130859		
1785.922852	10669.411133		
1787.241577	10702.642578		
1788.560303	10503.512695		
1789.879028	10529.708984		
1791.197754	10649.961914		
1792.516479	10579.696289		
1793.835205	10575.351563		
1795.153931	10650.21875		
1796.472656	10678.322266		
1797.791382	10682.585938		
1799.110107	10667.401367		
1800.428833	10660.056641		
1801.747559	10630.703125		
1803.066284	10549.435547		
1804.38501	10517.246094		
1805.703735	10584.897461		
1807.022461	10621.591797		
1808.341187	10576.197266		
1809.659912	10561.292969		
1810.978638	10520.458984		
1812.297363	10671.150391		
1813.616089	10619.325195		
1814.934814	10552.665039		
1816.25354	10425.131836		
1817.572266	10618.142578		
1818.890991	10647.789063		
1820.209717	10557.999023		
1821.528442	10524.125977		
1822.847168	10524.759766		
1824.165894	10656.222656		
1825.484619	10753.557617		
1826.803345	10563.063477		
1828.12207	10592.898438		
1829.440796	10663.084961		
1830.759521	10704.061523		
1832.078247	10666.820313		
1833.396973	10759.361328		
1834.715698	10706.083008		
1836.034424	10584.699219		
1837.353149	10619.628906		
1838.671875	10532.694336		
1839.990601	10626.954102		
1841.309326	10764.558594		
1842.628052	10706.821289		
1843.946777	10560.484375		
1845.265503	10812.691406		
1846.584229	10641.554688		
1847.902954	10505.118164		
1849.22168	10758.035156		
1850.540405	10741.671875		
1851.859131	10832.899414		
1853.177856	10626.15918		
1854.496582	10809.791016		
1855.815308	10978.524414		
1857.134033	10844.341797		
1858.452759	10938.266602		
1859.771484	10856.120117		
1861.09021	10827.00293		
1862.408936	10646.426758		
1863.727661	10882.738281		
1865.046387	10999.786133		
1866.365112	10996.573242		
1867.683838	10893.37207		
1869.002563	10852.703125		
1870.321289	10843.71875		
1871.640015	10952.271484		
1872.95874	11054.774414		
1874.277466	11245.400391		
1875.596191	11218.407227		
1876.914917	10915.958984		
1878.233643	11102.236328		
1879.552368	11075.395508		
1880.871094	11000.366211		
1882.189819	11096.158203		
1883.508545	11027.647461		
1884.827271	11035.146484		
1886.145996	11072.932617		
1887.464722	10968.335938		
1888.783447	11014.366211		
1890.102173	11071.451172		
1891.420898	11003.467773		
1892.739624	10951.637695		
1894.05835	11105.045898		
1895.377075	11010.803711		
1896.695801	11002.283203		
1898.014526	11023.268555		
1899.333252	11007.887695		
1900.651978	10973.314453		
1901.970703	11209.857422		
1903.289429	11129.613281		
1904.608154	11221.131836		
1905.92688	11124.082031		
1907.245605	11060.477539		
1908.564331	11036.508789		
1909.883057	10996.331055		
1911.201782	11065.085938		
1912.520508	11137.849609		
1913.839233	11213.837891		
1915.157959	11288.266602		
1916.476685	11109.06543		
1917.79541	11293.280273		
1919.114136	11010.472656		
1920.432861	11032.481445		
1921.751587	11137.527344		
1923.070313	11110.97168		
1924.389038	11361.017578		
1925.707764	11324.695313		
1927.026489	11105.051758		
1928.345215	11206.169922		
1929.66394	11271.064453		
1930.982666	11119.414063		
1932.301392	11161.639648		
1933.620117	11095.408203		
1934.938843	11180.674805		
1936.257568	11208.320313		
1937.576294	11027.950195		
1938.89502	11189.413086		
1940.213745	11126.484375		
1941.532471	11103.652344		
1942.851196	11096.452148		
1944.169922	11280.240234		
1945.488647	11108.267578		
1946.807373	11131.249023		
1948.126099	11281.976563		
1949.444824	11220.069336		
1950.76355	11306.827148		
1952.082275	11174.754883		
1953.401001	11300.415039		
1954.719727	11199.192383		
1956.038452	11155.238281		
1957.357178	11178.995117		
1958.675903	11235.436523		
1959.994629	11104.949219		
1961.313354	11238.929688		
1962.63208	11205.701172		
1963.950806	11292.918945		
1965.269531	11274.157227		
1966.588257	11255.367188		
1967.906982	11266.041992		
1969.225708	11207.311523		
1970.544434	11190.915039		
1971.863159	11306.317383		
1973.181885	11423.383789		
1974.50061	11341.370117		
1975.819336	11148.040039		
1977.138062	11320.680664		
1978.456787	11371.548828		
1979.775513	11264.611328		
1981.094238	11390.200195		
1982.412964	11415.219727		
1983.731689	11315.630859		
1985.050415	11384.867188		
1986.369141	11371.757813		
1987.687866	11421.975586		
1989.006592	11435.523438		
1990.325317	11447.921875		
1991.644043	11497.438477		
1992.962769	11473.586914		
1994.281494	11414.369141		
1995.60022	11505.048828		
1996.918945	11612.984375		
1998.237671	11622.65918		
1999.556396	11453.168945		
2000.875122	11483.287109		
2002.193848	11501.238281		
2003.512573	11557.960938		
2004.831299	11622.133789		
2006.150024	11494.244141		
2007.46875	11484.515625		
2008.787476	11605.848633		
2010.106201	11717.94043		
2011.424927	11706.447266		
2012.743652	11645.390625		
2014.062378	11609.87207		
2015.381104	11502.28125		
2016.699829	11472.157227		
2018.018555	11519.053711		
2019.33728	11675.510742		
2020.656006	11706.734375		
2021.974731	11660.116211		
2023.293457	11537.711914		
2024.612183	11615.195313		
2025.930908	11504.455078		
2027.249634	11595.206055		
2028.568359	11641.054688		
2029.887085	11667.289063		
2031.205811	11674.899414		
2032.524536	11722.583984		
2033.843262	11708.074219		
2035.161987	11673.834961		
2036.480713	11605.520508		
2037.799438	11591.317383		
2039.118164	11713.914063		
2040.43689	11594.75293		
2041.755615	11660.620117		
2043.074341	11679.794922		
2044.393066	11598.854492		
2045.711792	11725.958008		
2047.030518	11724.681641		
2048.349121	11909.038086		
2049.667725	11728.555664		
2050.986328	11750.210938		
2052.304932	11746.402344		
2053.623535	11564.05957		
2054.942139	11753.177734		
2056.260742	11688.905273		
2057.579346	11535.035156		
2058.897949	11603.467773		
2060.216553	11706.879883		
2061.535156	11825.298828		
2062.85376	11714.734375		
2064.172363	11632.806641		
2065.490967	11609.621094		
2066.80957	11669.066406		
2068.128174	11696.894531		
2069.446777	11716.697266		
2070.765381	11737.542969		
2072.083984	11710.973633		
2073.402588	11744.022461		
2074.721191	11742.932617		
2076.039795	11729.498047		
2077.358398	11722.817383		
2078.677002	11801.686523		
2079.995605	11820.915039		
2081.314209	11758.998047		
2082.632813	11713.408203		
2083.951416	11791.563477		
2085.27002	11622.899414		
2086.588623	11775.879883		
2087.907227	11810.245117		
2089.22583	11944.522461		
2090.544434	11874.47168		
2091.863037	11951.624023		
2093.181641	11682.849609		
2094.500244	11817.938477		
2095.818848	11973.261719		
2097.137451	11919.939453		
2098.456055	11985.188477		
2099.774658	11994.751953		
2101.093262	12015.847656		
2102.411865	11886.831055		
2103.730469	11898.685547		
2105.049072	11874.231445		
2106.367676	12073.797852		
2107.686279	12054.78125		
2109.004883	11832.850586		
2110.323486	11819.56543		
2111.64209	11838.858398		
2112.960693	11952.425781		
2114.279297	11918.097656		
2115.5979	12018.429688		
2116.916504	11999.641602		
2118.235107	12039.3125		
2119.553711	11970.647461		
2120.872314	12031.790039		
2122.190918	12061.757813		
2123.509521	12121.141602		
2124.828125	12232.423828		
2126.146729	12055.964844		
2127.465332	11979.212891		
2128.783936	12005.15625		
2130.102539	12020.823242		
2131.421143	12138.385742		
2132.739746	12094.897461		
2134.05835	12169.426758		
2135.376953	12120.079102		
2136.695557	11933.52832		
2138.01416	12126.113281		
2139.332764	12048.546875		
2140.651367	12236.119141		
2141.969971	12283.214844		
2143.288574	12033.976563		
2144.607178	12092.787109		
2145.925781	12102.44043		
2147.244385	12118.995117		
2148.562988	12056.53125		
2149.881592	12152.322266		
2151.200195	12245.613281		
2152.518799	12299.026367		
2153.837402	12322.557617		
2155.156006	12143.392578		
2156.474609	12091.515625		
2157.793213	12096.790039		
2159.111816	12125.15625		
2160.43042	12304.233398		
2161.749023	12277.821289		
2163.067627	12095.344727		
2164.38623	12105.40625		
2165.704834	12126.174805		
2167.023438	12192.206055		
2168.342041	12204.787109		
2169.660645	12164.412109		
2170.979248	12140.064453		
2172.297852	12084.832031		
2173.616455	12163.584961		
2174.935059	12185.342773		
2176.253662	12224.613281		
2177.572266	12251.279297		
2178.890869	12258.665039		
2180.209473	12278.276367		
2181.528076	12242.198242		
2182.84668	12117.189453		
2184.165283	12166.547852		
2185.483887	12145.345703		
2186.80249	12297.366211		
2188.121094	12250.348633		
2189.439697	12250.264648		
2190.758301	12212.795898		
2192.076904	12178.963867		
2193.395508	12114.037109		
2194.714111	12176.678711		
2196.032715	12258.339844		
2197.351318	12258.578125		
2198.669922	12314.336914		
2199.988525	12202.482422		
2201.307129	12234.879883		
2202.625732	12261.100586		
2203.944336	12411.338867		
2205.262939	12340.171875		
2206.581543	12160.475586		
2207.900146	12369.549805		
2209.21875	12359.78418		
2210.537354	12334.27832		
2211.855957	12337.195313		
2213.174561	12321.270508		
2214.493164	12362.043945		
2215.811768	12258.524414		
2217.130371	12322.893555		
2218.448975	12410.466797		
2219.767578	12347.026367		
2221.086182	12345.629883		
2222.404785	12276.635742		
2223.723389	12286.567383		
2225.041992	12410.408203		
2226.360596	12448.751953		
2227.679199	12275.628906		
2228.997803	12360.731445		
2230.316406	12403.259766		
2231.63501	12352.757813		
2232.953613	12418.081055		
2234.272217	12455.494141		
2235.59082	12309.405273		
2236.909424	12458.888672		
2238.228027	12362.560547		
2239.546631	12373.816406		
2240.865234	12257.077148		
2242.183838	12380.395508		
2243.502441	12411.620117		
2244.821045	12606.243164		
2246.139648	12470.268555		
2247.458252	12573.994141		
2248.776855	12523.685547		
2250.095459	12451.50293		
2251.414063	12450.299805		
2252.732666	12458.231445		
2254.05127	12532.173828		
2255.369873	12515.766602		
2256.688477	12440.025391		
2258.00708	12521.464844		
2259.325684	12591.629883		
2260.644287	12464.662109		
2261.962891	12411.766602		
2263.281494	12358.462891		
2264.600098	12657.560547		
2265.918701	12484.239258		
2267.237305	12519.546875		
2268.555908	12419.764648		
2269.874512	12517.219727		
2271.193115	12387.65332		
2272.511719	12642.725586		
2273.830322	12485.224609		
2275.148926	12514.78418		
2276.467529	12592.703125		
2277.786133	12600.654297		
2279.104736	12556.930664		
2280.42334	12465.616211		
2281.741943	12436.547852		
2283.060547	12597.15625		
2284.37915	12584.959961		
2285.697754	12605.827148		
2287.016357	12585.544922		
2288.334961	12449.527344		
2289.653564	12808.713867		
2290.972168	12360.475586		
2292.290771	12610.157227		
2293.609375	12490.336914		
2294.927979	12698.227539		
2296.246582	12510.022461		
2297.565186	12594.082031		
2298.883789	12590.144531		
2300.202393	12523.143555		
2301.520996	12663.980469		
2302.8396	12672.192383		
2304.158203	12595.913086		
2305.476807	12645.229492		
2306.79541	12600.227539		
2308.114014	12510.586914		
2309.432617	12650.955078		
2310.751221	12693.274414		
2312.069824	12645.119141		
2313.388428	12734.588867		
2314.707031	12579.500977		
2316.025635	12608.012695		
2317.344238	12665.3125		
2318.662842	12669.328125		
2319.981445	12828.787109		
2321.300049	12641.540039		
2322.618652	12508.929688		
2323.937256	12530.826172		
2325.255859	12591.021484		
2326.574463	12650.890625		
2327.893066	12689.987305		
2329.21167	12723.588867		
2330.530273	12725.52832		
2331.848877	12607.157227		
2333.16748	12641.59668		
2334.486084	12670.532227		
2335.804688	12695.793945		
2337.123291	12753.887695		
2338.441895	12626.30957		
2339.760498	12875.22168		
2341.079102	12779.421875		
2342.397705	12793.435547		
2343.716309	12763.368164		
2345.034912	12759.458984		
2346.353516	12723.390625		
2347.672119	12703.598633		
2348.990723	12742.920898		
2350.309326	12745.283203		
2351.62793	12782.210938		
2352.946533	12863.839844		
2354.265137	12721.799805		
2355.58374	12926.256836		
2356.902344	12833.044922		
2358.220947	12927.958984		
2359.539551	12696.78125		
2360.858154	12684.629883		
2362.176758	12905.466797		
2363.495361	12805.107422		
2364.813965	12895.757813		
2366.132568	12864.946289		
2367.451172	12916.738281		
2368.769775	12907.428711		
2370.088379	12817.59668		
2371.406982	12886.091797		
2372.725586	12933.361328		
2374.044189	12791.027344		
2375.362793	12740.769531		
2376.681396	13015.478516		
2378.0	13172.808594		
2379.318604	12937.90918		
2380.637207	12929.859375		
2381.955811	12940.431641		
2383.274414	12990.576172		
2384.593018	13010.71875		
2385.911621	12876.195313		
2387.230225	12776.915039		
2388.548828	12892.428711		
2389.867432	13047.395508		
2391.186035	13014.597656		
2392.504639	12923.068359		
2393.823242	12979.801758		
2395.141846	13039.056641		
2396.460449	13001.988281		
2397.779053	12921.691406		
2399.097656	13137.808594		
2400.41626	13021.236328		
2401.734863	13021.365234		
2403.053467	12845.289063		
2404.37207	12837.349609		
2405.690674	12937.143555		
2407.009277	13008.138672		
2408.327881	13137.390625		
2409.646484	13014.043945		
2410.965088	13137.758789		
2412.283691	12996.813477		
2413.602295	12922.696289		
2414.920898	13084.735352		
2416.239502	12993.495117		
2417.558105	13035.805664		
2418.876709	13007.15332		
2420.195313	12886.253906		
2421.513916	13090.928711		
2422.83252	13081.977539		
2424.151123	13017.310547		
2425.469727	12921.705078		
2426.78833	12915.966797		
2428.106934	12980.892578		
2429.425537	13015.696289		
2430.744141	13024.852539		
2432.062744	13037.037109		
2433.381348	13031.451172		
2434.699951	13014.837891		
2436.018555	13074.764648		
2437.337158	13077.860352		
2438.655762	13236.709961		
2439.974365	13034.931641		
2441.292969	13124.438477		
2442.611572	13063.889648		
2443.930176	13067.583008		
2445.248779	13075.568359		
2446.567383	13106.494141		
2447.885986	13125.392578		
2449.20459	13051.583008		
2450.523193	13230.554688		
2451.841797	13022.924805		
2453.1604	13036.017578		
2454.479004	13072.845703		
2455.797607	13029.458008		
2457.116211	13048.404297		
2458.434814	13064.916016		
2459.753418	13017.553711		
2461.072021	13075.595703		
2462.390625	13008.748047		
2463.709229	13084.981445		
2465.027832	13183.411133		
2466.346436	13248.547852		
2467.665039	13016.291016		
2468.983643	13319.37793		
2470.302246	13142.833008		
2471.62085	13274.564453		
2472.939453	13138.404297		
2474.258057	13269.27832		
2475.57666	13318.830078		
2476.895264	13272.755859		
2478.213867	13092.296875		
2479.532471	13164.18457		
2480.851074	13243.232422		
2482.169678	13110.50293		
2483.488281	13152.477539		
2484.806885	13183.604492		
2486.125488	13178.450195		
2487.444092	13088.535156		
2488.762695	13230.138672		
2490.081299	13234.079102		
2491.399902	13246.28125		
2492.718506	13105.62207		
2494.037109	13273.137695		
2495.355713	13264.81543		
2496.674316	13175.798828		
2497.99292	13187.803711		
2499.311523	12926.412109		
2500.630127	13309.239258		
2501.94873	13240.144531		
2503.267334	13203.296875		
2504.585938	13250.65332		
2505.904541	13201.870117		
2507.223145	13306.519531		
2508.541748	13244.483398		
2509.860352	13206.341797		
2511.178955	13252.836914		
2512.497559	13340.661133		
2513.816162	13430.767578		
2515.134766	13326.751953		
2516.453369	13281.77832		
2517.771973	13298.881836		
2519.090576	13242.25		
2520.40918	13271.407227		
2521.727783	13271.890625		
2523.046387	13263.091797		
2524.36499	13380.90625		
2525.683594	13414.830078		
2527.002197	13178.166992		
2528.320801	13231.276367		
2529.639404	13274.231445		
2530.958008	13337.459961		
2532.276611	13312.162109		
2533.595215	13115.953125		
2534.913818	13195.287109		
2536.232422	13244.3125		
2537.551025	13190.192383		
2538.869629	13007.082031		
2540.188232	13099.513672		
2541.506836	13072.386719		
2542.825439	13201.529297		
2544.144043	13145.832031		
2545.462646	13266.55957		
2546.78125	13278.178711		
2548.099854	13324.65625		
2549.418457	13293.349609		
2550.737061	13189.400391		
2552.055664	13334.198242		
2553.374268	13341.984375		
2554.692871	13192.708984		
2556.011475	13206.966797		
2557.330078	13269.889648		
2558.648682	13163.822266		
2559.967285	13245.060547		
2561.285889	13247.84668		
2562.604492	13236.774414		
2563.923096	13110.609375		
2565.241699	13232.513672		
2566.560303	13327.207031		
2567.878906	13253.663086		
2569.19751	13372.649414		
2570.516113	13327.169922		
2571.834717	13277.853516		
2573.15332	13253.294922		
2574.471924	13271.448242		
2575.790527	13241.476563		
2577.109131	13299.206055		
2578.427734	13328.527344		
2579.746338	13372.756836		
2581.064941	13370.288086		
2582.383545	13363.029297		
2583.702148	13282.306641		
2585.020752	13315.992188		
2586.339355	13226.544922		
2587.657959	13325.178711		
2588.976563	13412.066406		
2590.295166	13384.480469		
2591.61377	13257.40918		
2592.932373	13241.983398		
2594.250977	13307.657227		
2595.56958	13309.554688		
2596.888184	13311.03418		
2598.206787	13429.364258		
2599.525391	13459.193359		
2600.843994	13361.425781		
2602.162598	13296.50293		
2603.481201	13495.855469		
2604.799805	13453.435547		
2606.118408	13366.969727		
2607.437012	13353.664063		
2608.755615	13322.514648		
2610.074219	13409.444336		
2611.392822	13435.897461		
2612.711426	13470.291016		
2614.030029	13478.300781		
2615.348633	13474.664063		
2616.667236	13376.453125		
2617.98584	13389.43457		
2619.304443	13482.09668		
2620.623047	13528.484375		
2621.94165	13368.695313		
2623.260254	13363.446289		
2624.578857	13558.84082		
2625.897461	13695.680664		
2627.216064	13509.609375		
2628.534668	13520.65332		
2629.853271	13408.115234		
2631.171875	13553.049805		
2632.490479	13365.347656		
2633.809082	13548.776367		
2635.127686	13603.782227		
2636.446289	13636.762695		
2637.764893	13558.269531		
2639.083496	13780.448242		
2640.4021	13557.643555		
2641.720703	13473.59668		
2643.039307	13626.553711		
2644.35791	13563.645508		
2645.676514	13537.126953		
2646.995117	13665.09375		
2648.313721	13591.384766		
2649.632324	13560.594727		
2650.950928	13544.813477		
2652.269531	13638.772461		
2653.588135	13612.685547		
2654.906738	13511.503906		
2656.225342	13558.349609		
2657.543945	13554.453125		
2658.862549	13534.945313		
2660.181152	13563.455078		
2661.499756	13609.201172		
2662.818359	13488.416992		
2664.136963	13618.046875		
2665.455566	13649.199219		
2666.77417	13511.30957		
2668.092773	13505.538086		
2669.411377	13591.193359		
2670.72998	13605.967773		
2672.048584	13633.868164		
2673.367188	13609.084961		
2674.685791	13568.544922		
2676.004395	13541.798828		
2677.322998	13622.458008		
2678.641602	13567.59082		
2679.960205	13588.692383		
2681.278809	13536.508789		
2682.597412	13530.817383		
2683.916016	13745.019531		
2685.234619	13575.067383		
2686.553223	13652.297852		
2687.871826	13429.762695		
2689.19043	13612.806641		
2690.509033	13585.640625		
2691.827637	13693.826172		
2693.14624	13696.625		
2694.464844	13561.418945		
2695.783447	13658.854492		
2697.102051	13533.068359		
2698.420654	13613.913086		
2699.739258	13743.334961		
2701.057861	13693.766602		
2702.376465	13660.575195		
2703.695068	13637.509766		
2705.013672	13623.775391		
2706.332275	13549.304688		
2707.650879	13541.808594		
2708.969482	13712.53125		
2710.288086	13482.962891		
2711.606689	13698.731445		
2712.925293	13575.464844		
2714.243896	13587.802734		
2715.5625	13644.556641		
2716.881104	13646.330078		
2718.199707	13702.772461		
2719.518311	13751.834961		
2720.836914	13617.84082		
2722.155518	13564.532227		
2723.474121	13640.666992		
2724.792725	13634.853516		
2726.111328	13740.693359		
2727.429932	13772.05957		
2728.748535	13708.522461		
2730.067139	13643.356445		
2731.385742	13618.960938		
2732.704346	13720.099609		
2734.022949	13604.510742		
2735.341553	13590.09375		
2736.660156	13664.243164		
2737.97876	13745.46875		
2739.297363	13578.145508		
2740.615967	13687.021484		
2741.93457	13561.634766		
2743.253174	13810.568359		
2744.571777	13616.794922		
2745.890381	13701.893555		
2747.208984	13682.117188		
2748.527588	13799.90332		
2749.846191	13797.035156		
2751.164795	13639.503906		
2752.483398	13669.216797		
2753.802002	13438.649414		
2755.120605	13846.634766		
2756.439209	13596.243164		
2757.757813	13537.974609		
2759.076416	13628.55957		
2760.39502	13646.4375		
2761.713623	13523.692383		
2763.032227	13654.177734		
2764.35083	13644.138672		
2765.669434	13714.936523		
2766.988037	13811.678711		
2768.306641	13853.665039		
2769.625244	13692.875		
2770.943848	13618.449219		
2772.262451	13711.561523		
2773.581055	13657.095703		
2774.899658	13688.363281		
2776.218262	13739.800781		
2777.536865	13729.814453		
2778.855469	13691.948242		
2780.174072	13761.19043		
2781.492676	13729.545898		
2782.811279	13602.742188		
2784.129883	13591.930664		
2785.448486	13773.560547		
2786.76709	13590.102539		
2788.085693	13584.298828		
2789.404297	13585.401367		
2790.7229	13693.792969		
2792.041504	13711.991211		
2793.360107	13567.658203		
2794.678711	13660.245117		
2795.997314	13578.648438		
2797.315918	13572.430664		
2798.634521	13667.230469		
2799.953125	13786.550781		
2801.271729	13784.802734		
2802.590332	13676.008789		
2803.908936	13631.442383		
2805.227539	13672.00293		
2806.546143	13648.104492		
2807.864746	13682.373047		
2809.18335	13532.099609		
2810.501953	13647.69043		
2811.820557	13638.504883		
2813.13916	13750.268555		
2814.457764	13655.854492		
2815.776367	13602.915039		
2817.094971	13599.691406		
2818.413574	13673.276367		
2819.732178	13550.774414		
2821.050781	13640.865234		
2822.369385	13873.192383		
2823.687988	13694.866211		
2825.006592	13624.492188		
2826.325195	13601.573242		
2827.643799	13629.041992		
2828.962402	13660.578125		
2830.281006	13707.608398		
2831.599609	13835.370117		
2832.918213	13825.523438		
2834.236816	13611.164063		
2835.55542	13641.05957		
2836.874023	13678.529297		
2838.192627	13779.928711		
2839.51123	13631.350586		
2840.829834	13729.939453		
2842.148438	13871.165039		
2843.467041	13789.263672		
2844.785645	13843.602539		
2846.104248	13775.94043		
2847.422852	13839.172852		
2848.741455	13729.282227		
2850.060059	13748.224609		
2851.378662	13722.664063		
2852.697266	13839.039063		
2854.015869	13997.892578		
2855.334473	13652.286133		
2856.653076	13950.212891		
2857.97168	13863.006836		
2859.290283	13709.999023		
2860.608887	13817.49707		
2861.92749	13956.993164		
2863.246094	13596.501953		
2864.564697	14058.384766		
2865.883301	13799.618164		
2867.201904	13895.52832		
2868.520508	13785.472656		
2869.839111	13907.123047		
2871.157715	14072.955078		
2872.476318	13754.344727		
2873.794922	13949.59375		
2875.113525	13803.375		
2876.432129	13790.547852		
2877.750732	13789.313477		
2879.069336	13584.189453		
2880.387939	13536.630859		
2881.706543	13850.526367		
2883.025146	13886.768555		
2884.34375	13853.853516		
2885.662354	13782.945313		
2886.980957	13877.150391		
2888.299561	13968.242188		
2889.618164	14025.009766		
2890.936768	13755.730469		
2892.255371	13768.566406		
2893.573975	13894.162109		
2894.892578	13964.697266		
2896.211182	13983.867188		
2897.529785	13998.144531		
2898.848389	13982.152344		
2900.166992	13948.894531		
2901.485596	13954.758789		
2902.804199	13755.227539		
2904.122803	13714.337891		
2905.441406	13890.183594		
2906.76001	14064.289063		
2908.078613	13974.254883		
2909.397217	13811.900391		
2910.71582	13840.240234		
2912.034424	13932.517578		
2913.353027	13912.444336		
2914.671631	13953.052734		
2915.990234	14067.704102		
2917.308838	13985.361328		
2918.627441	13930.398438		
2919.946045	13775.308594		
2921.264648	13799.462891		
2922.583252	13832.936523		
2923.901855	13898.126953		
2925.220459	13965.353516		
2926.539063	13970.838867		
2927.857666	13915.915039		
2929.17627	13991.442383		
2930.494873	13950.651367		
2931.813477	13914.026367		
2933.13208	13801.44043		
2934.450684	13904.601563		
2935.769287	13803.625977		
2937.087891	13916.192383		
2938.406494	14011.516602		
2939.725098	13924.597656		
2941.043701	13988.365234		
2942.362305	14084.253906		
2943.680908	14060.867188		
2944.999512	14073.345703		
2946.318115	14136.75293		
2947.636719	14093.307617		
2948.955322	14079.515625		
2950.273926	13969.46582		
2951.592529	14099.427734		
2952.911133	14019.897461		
2954.229736	14127.816406		
2955.54834	14019.850586		
2956.866943	13971.935547		
2958.185547	14193.648438		
2959.50415	14126.225586		
2960.822754	14007.707031		
2962.141357	13931.326172		
2963.459961	13941.902344		
2964.778564	13931.038086		
2966.097168	13974.193359		
2967.415771	13940.943359		
2968.734375	13835.757813		
2970.052979	13842.333008		
2971.371582	14033.194336		
2972.690186	13977.174805		
2974.008789	13954.650391		
2975.327393	13987.501953		
2976.645996	13958.725586		
2977.9646	13951.676758		
2979.283203	13897.817383		
2980.601807	13892.679688		
2981.92041	13929.28125		
2983.239014	13843.662109		
2984.557617	14112.407227		
2985.876221	13951.339844		
2987.194824	13934.422852		
2988.513428	14084.274414		
2989.832031	13868.141602		
2991.150635	13961.96875		
2992.469238	14081.84375		
2993.787842	13838.151367		
2995.106445	13872.698242		
2996.425049	13899.260742		
2997.743652	13872.836914		
2999.062256	13981.047852		
3000.380859	14002.449219		
