Unnamed: 1	#Wave	Unnamed: 3	#Intensity
699.292969	1929.100586		
700.611694	1940.320923		
701.93042	1977.642578		
703.249146	1970.822388		
704.567871	1946.000732		
705.886597	1912.339844		
707.205322	1878.048828		
708.524048	1951.27417		
709.842773	1920.654907		
711.161499	1926.547852		
712.480225	1916.286377		
713.79895	1949.008057		
715.117676	1983.174438		
716.436401	1952.221191		
717.755127	1932.555176		
719.073853	1951.182373		
720.392578	1964.723999		
721.711304	1976.675537		
723.030029	1942.17981		
724.348755	1931.010132		
725.66748	1977.550781		
726.986206	1972.066284		
728.304932	1965.317261		
729.623657	1994.685181		
730.942383	1983.759766		
732.261108	1987.281738		
733.579834	2003.981567		
734.89856	2011.77063		
736.217285	2002.578735		
737.536011	1980.242676		
738.854736	2008.844971		
740.173462	2007.679565		
741.492188	2001.886475		
742.810913	1983.063477		
744.129639	1982.74353		
745.448364	2016.719604		
746.76709	1990.190918		
748.085815	2010.356812		
749.404541	2043.371094		
750.723267	2041.684448		
752.041992	2016.029541		
753.360718	2003.366943		
754.679443	2021.896606		
755.998169	2042.728638		
757.316895	2008.946167		
758.63562	1973.727295		
759.954346	2039.692139		
761.273071	2039.503906		
762.591797	2028.31958		
763.910522	2046.980469		
765.229248	2046.593628		
766.547974	1998.664307		
767.866699	2065.950195		
769.185425	2069.497803		
770.50415	2069.783691		
771.822876	2061.456787		
773.141602	2032.376099		
774.460327	2001.404419		
775.779053	2017.642822		
777.097778	2082.318115		
778.416504	2015.211304		
779.735229	2062.738281		
781.053955	2045.540405		
782.372681	2027.13208		
783.691406	2047.134399		
785.010132	2071.497559		
786.328857	2098.895508		
787.647583	2051.977539		
788.966309	2114.761475		
790.285034	2124.736816		
791.60376	2085.237305		
792.922485	2070.842285		
794.241211	2107.003418		
795.559937	2136.591797		
796.878662	2120.04248		
798.197388	2060.085205		
799.516113	2076.787109		
800.834839	2103.385986		
802.153564	2131.272461		
803.47229	2148.616455		
804.791016	2145.140137		
806.109741	2130.517822		
807.428467	2130.859131		
808.747192	2087.169189		
810.065918	2108.095947		
811.384644	2136.595703		
812.703369	2147.182861		
814.022095	2138.920898		
815.34082	2122.317139		
816.659546	2112.047363		
817.978271	2147.011475		
819.296997	2129.469238		
820.615723	2143.588135		
821.934448	2187.721191		
823.253174	2179.055908		
824.571899	2154.856934		
825.890625	2194.592773		
827.209351	2196.628906		
828.528076	2092.834717		
829.846802	2142.766113		
831.165527	2179.408691		
832.484253	2142.276123		
833.802979	2162.094482		
835.121704	2223.023926		
836.44043	2210.649658		
837.759155	2237.578857		
839.077881	2163.977051		
840.396606	2172.848877		
841.715332	2214.077393		
843.034058	2199.38501		
844.352783	2184.808594		
845.671509	2208.239014		
846.990234	2222.83667		
848.30896	2185.566406		
849.627686	2219.35791		
850.946411	2183.762451		
852.265137	2152.595215		
853.583862	2125.735352		
854.902588	2157.242188		
856.221313	2215.978027		
857.540039	2209.621094		
858.858765	2146.381836		
860.17749	2133.607178		
861.496216	2163.721191		
862.814941	2231.555664		
864.133667	2247.27002		
865.452393	2271.674316		
866.771118	2262.17627		
868.089844	2188.454346		
869.408569	2233.107666		
870.727295	2199.853027		
872.046021	2234.8125		
873.364746	2285.124268		
874.683472	2259.885254		
876.002197	2242.612061		
877.320923	2260.907227		
878.639648	2257.533447		
879.958374	2212.925049		
881.2771	2293.222412		
882.595825	2256.952881		
883.914551	2279.235352		
885.233276	2228.835449		
886.552002	2260.224365		
887.870728	2297.10376		
889.189453	2272.210938		
890.508179	2297.217529		
891.826904	2339.54126		
893.14563	2369.303955		
894.464355	2338.653809		
895.783081	2327.44873		
897.101807	2316.789307		
898.420532	2304.691162		
899.739258	2312.29126		
901.057983	2337.939697		
902.376709	2328.352295		
903.695435	2334.619629		
905.01416	2340.897461		
906.332886	2318.857178		
907.651611	2354.293945		
908.970337	2360.540771		
910.289063	2322.123535		
911.607788	2317.505859		
912.926514	2379.106445		
914.245239	2348.323486		
915.563965	2313.249023		
916.88269	2286.119873		
918.201416	2337.206055		
919.520142	2372.921875		
920.838867	2391.856934		
922.157593	2395.478027		
923.476318	2366.205078		
924.795044	2342.719238		
926.11377	2329.768066		
927.432495	2373.406006		
928.751221	2386.813965		
930.069946	2377.593506		
931.388672	2378.193604		
932.707397	2374.221191		
934.026123	2343.611084		
935.344849	2318.847412		
936.663574	2375.332031		
937.9823	2363.834229		
939.301025	2338.421875		
940.619751	2372.012207		
941.938477	2387.733154		
943.257202	2378.311279		
944.575928	2372.10498		
945.894653	2361.857666		
947.213379	2336.536865		
948.532104	2469.879639		
949.85083	2409.139404		
951.169556	2387.659668		
952.488281	2389.907715		
953.807007	2393.863037		
955.125732	2383.994141		
956.444458	2387.824219		
957.763184	2428.107666		
959.081909	2453.379639		
960.400635	2396.029785		
961.71936	2369.535889		
963.038086	2414.940186		
964.356812	2401.656982		
965.675537	2430.778809		
966.994263	2442.461426		
968.312988	2409.175293		
969.631714	2386.078613		
970.950439	2378.838623		
972.269165	2436.119873		
973.587891	2493.496094		
974.906616	2445.611084		
976.225342	2421.200439		
977.544067	2476.291748		
978.862793	2520.157227		
980.181519	2485.799072		
981.500244	2427.476807		
982.81897	2441.222412		
984.137695	2470.63916		
985.456421	2452.995605		
986.775146	2456.961182		
988.093872	2487.875977		
989.412598	2486.597168		
990.731323	2497.970215		
992.050049	2513.182861		
993.368774	2491.436768		
994.6875	2474.969971		
996.006226	2482.834473		
997.324951	2557.122314		
998.643677	2486.934326		
999.962402	2515.469482		
1001.281128	2508.077881		
1002.599854	2491.014648		
1003.918579	2506.456299		
1005.237305	2531.589111		
1006.55603	2519.709229		
1007.874756	2465.696533		
1009.193481	2500.873779		
1010.512207	2528.821777		
1011.830933	2551.412598		
1013.149658	2541.438232		
1014.468384	2561.863525		
1015.787109	2524.705322		
1017.105835	2466.22583		
1018.424561	2520.384277		
1019.743286	2536.912842		
1021.062012	2570.348633		
1022.380737	2558.634033		
1023.699463	2533.397705		
1025.018188	2515.868408		
1026.336914	2542.833008		
1027.65564	2560.840332		
1028.974365	2562.358154		
1030.293091	2568.307373		
1031.611816	2556.80249		
1032.930542	2562.07373		
1034.249268	2510.785156		
1035.567993	2600.172119		
1036.886719	2569.062744		
1038.205444	2563.682373		
1039.52417	2542.704102		
1040.842896	2558.045654		
1042.161621	2585.412354		
1043.480347	2573.447754		
1044.799072	2650.455566		
1046.117798	2543.919434		
1047.436523	2529.061035		
1048.755249	2558.980957		
1050.073975	2508.499268		
1051.3927	2561.015137		
1052.711426	2596.336182		
1054.030151	2609.231689		
1055.348877	2628.298828		
1056.667603	2598.510742		
1057.986328	2608.207031		
1059.305054	2640.471436		
1060.623779	2634.774658		
1061.942505	2612.621094		
1063.26123	2622.112305		
1064.579956	2624.491211		
1065.898682	2631.620117		
1067.217407	2627.023193		
1068.536133	2622.959229		
1069.854858	2667.854004		
1071.173584	2681.538086		
1072.49231	2617.566162		
1073.811035	2662.548096		
1075.129761	2685.658936		
1076.448486	2668.946045		
1077.767212	2646.833984		
1079.085938	2627.268555		
1080.404663	2600.103027		
1081.723389	2598.546387		
1083.042114	2654.585938		
1084.36084	2672.07959		
1085.679565	2667.860352		
1086.998291	2660.591309		
1088.317017	2675.551758		
1089.635742	2697.854004		
1090.954468	2658.121826		
1092.273193	2657.483154		
1093.591919	2674.145752		
1094.910645	2684.03833		
1096.22937	2717.504395		
1097.548096	2666.577148		
1098.866821	2675.144287		
1100.185547	2613.76123		
1101.504272	2714.822754		
1102.822998	2672.933838		
1104.141724	2735.93042		
1105.460449	2714.560059		
1106.779175	2706.9646		
1108.0979	2747.313477		
1109.416626	2701.669678		
1110.735352	2657.951904		
1112.054077	2662.38501		
1113.372803	2786.993652		
1114.691528	2700.101318		
1116.010254	2699.073486		
1117.328979	2714.310303		
1118.647705	2721.079346		
1119.966431	2737.70166		
1121.285156	2757.055176		
1122.603882	2749.717285		
1123.922607	2730.820801		
1125.241333	2764.997559		
1126.560059	2775.66748		
1127.878784	2766.779541		
1129.19751	2750.645508		
1130.516235	2793.202393		
1131.834961	2751.191162		
1133.153687	2734.109619		
1134.472412	2791.206299		
1135.791138	2781.5271		
1137.109863	2703.147217		
1138.428589	2755.714111		
1139.747314	2716.872559		
1141.06604	2763.495361		
1142.384766	2729.584717		
1143.703491	2854.421143		
1145.022217	2785.258301		
1146.340942	2741.281982		
1147.659668	2762.270996		
1148.978394	2786.089111		
1150.297119	2768.551514		
1151.615845	2759.438965		
1152.93457	2827.376465		
1154.253296	2816.903076		
1155.572021	2820.339844		
1156.890747	2751.765625		
1158.209473	2807.902832		
1159.528198	2805.470703		
1160.846924	2833.132324		
1162.165649	2820.725342		
1163.484375	2776.539063		
1164.803101	2775.888184		
1166.121826	2823.36084		
1167.440552	2843.237549		
1168.759277	2802.172119		
1170.078003	2769.735352		
1171.396729	2837.871582		
1172.715454	2840.901611		
1174.03418	2830.441406		
1175.352905	2790.870361		
1176.671631	2784.492188		
1177.990356	2850.827148		
1179.309082	2869.990723		
1180.627808	2807.895264		
1181.946533	2804.615479		
1183.265259	2790.248535		
1184.583984	2833.602783		
1185.90271	2823.001953		
1187.221436	2903.016357		
1188.540161	2828.120605		
1189.858887	2830.301514		
1191.177612	2869.263672		
1192.496338	2892.651367		
1193.815063	2904.914551		
1195.133789	2886.523438		
1196.452515	2852.404785		
1197.77124	2891.304443		
1199.089966	2881.366455		
1200.408691	2982.412109		
1201.727417	2881.512939		
1203.046143	2947.921143		
1204.364868	2855.264404		
1205.683594	2913.855469		
1207.002319	2942.819092		
1208.321045	2972.773926		
1209.639771	2967.947021		
1210.958496	2895.041016		
1212.277222	2873.547852		
1213.595947	2867.110107		
1214.914673	2935.915283		
1216.233398	2904.572266		
1217.552124	2936.638428		
1218.87085	2950.254883		
1220.189575	2928.171631		
1221.508301	2926.035645		
1222.827026	2958.716309		
1224.145752	2926.750488		
1225.464478	2873.021729		
1226.783203	2923.828613		
1228.101929	2999.23291		
1229.420654	2924.047119		
1230.73938	2945.350586		
1232.058105	3028.026611		
1233.376831	2881.404053		
1234.695557	2935.237305		
1236.014282	2981.266846		
1237.333008	2987.523193		
1238.651733	2975.38208		
1239.970459	2984.115723		
1241.289185	2980.765137		
1242.60791	2950.834961		
1243.926636	2952.304199		
1245.245361	2995.321289		
1246.564087	3019.471924		
1247.882813	2973.937988		
1249.201538	2985.660645		
1250.520264	2973.015625		
1251.838989	2932.771729		
1253.157715	2966.742188		
1254.47644	2995.797852		
1255.795166	3005.578613		
1257.113892	3080.883057		
1258.432617	3087.801758		
1259.751343	2955.645508		
1261.070068	2945.540283		
1262.388794	3070.156738		
1263.70752	3091.71582		
1265.026245	2907.087158		
1266.344971	3009.147217		
1267.663696	3069.635986		
1268.982422	3015.863281		
1270.301147	3038.947021		
1271.619873	3056.531006		
1272.938599	3057.314453		
1274.257324	3043.207031		
1275.57605	3026.556396		
1276.894775	3033.550049		
1278.213501	3038.380859		
1279.532227	3031.776855		
1280.850952	3123.597168		
1282.169678	3036.978516		
1283.488403	3000.216309		
1284.807129	3048.650879		
1286.125854	3078.366211		
1287.44458	3074.893066		
1288.763306	3069.020508		
1290.082031	3037.317383		
1291.400757	3040.136963		
1292.719482	3066.768311		
1294.038208	3042.629639		
1295.356934	3040.713623		
1296.675659	3141.532227		
1297.994385	3113.183838		
1299.31311	3052.353271		
1300.631836	3104.890869		
1301.950562	3121.848389		
1303.269287	3077.435059		
1304.588013	3048.750488		
1305.906738	3158.80835		
1307.225464	3192.080811		
1308.544189	3120.431641		
1309.862915	3107.862793		
1311.181641	3143.796631		
1312.500366	3146.784912		
1313.819092	3180.393799		
1315.137817	3120.650391		
1316.456543	3173.547607		
1317.775269	3175.804688		
1319.093994	3189.406494		
1320.41272	3184.748047		
1321.731445	3128.517334		
1323.050171	3128.394287		
1324.368896	3166.359131		
1325.687622	3206.598389		
1327.006348	3175.036133		
1328.325073	3141.161377		
1329.643799	3192.431885		
1330.962524	3243.299805		
1332.28125	3223.480713		
1333.599976	3237.960938		
1334.918701	3253.940674		
1336.237427	3244.524902		
1337.556152	3228.661377		
1338.874878	3161.671875		
1340.193604	3207.095703		
1341.512329	3208.771484		
1342.831055	3209.891113		
1344.14978	3198.950195		
1345.468506	3195.040039		
1346.787231	3226.739014		
1348.105957	3238.263916		
1349.424683	3232.092285		
1350.743408	3261.954346		
1352.062134	3205.618408		
1353.380859	3216.912842		
1354.699585	3231.463623		
1356.018311	3207.272217		
1357.337036	3269.382324		
1358.655762	3284.293457		
1359.974487	3195.88916		
1361.293213	3205.073486		
1362.611938	3252.019531		
1363.930664	3239.201172		
1365.24939	3152.460449		
1366.568115	3174.559326		
1367.886841	3253.164063		
1369.205566	3226.298828		
1370.524292	3266.281006		
1371.843018	3312.962646		
1373.161743	3163.017578		
1374.480469	3209.847168		
1375.799194	3304.852295		
1377.11792	3185.608154		
1378.436646	3243.01123		
1379.755371	3263.775635		
1381.074097	3261.577881		
1382.392822	3354.399658		
1383.711548	3344.951416		
1385.030273	3295.762207		
1386.348999	3314.729492		
1387.667725	3307.039551		
1388.98645	3256.175293		
1390.305176	3266.55835		
1391.623901	3249.029785		
1392.942627	3208.85791		
1394.261353	3306.320557		
1395.580078	3385.720215		
1396.898804	3276.45459		
1398.217529	3199.396973		
1399.536255	3256.068115		
1400.85498	3276.278809		
1402.173706	3333.213867		
1403.492432	3370.862305		
1404.811157	3314.556152		
1406.129883	3347.734375		
1407.448608	3378.033447		
1408.767334	3390.417236		
1410.08606	3444.510742		
1411.404785	3417.522949		
1412.723511	3407.624756		
1414.042236	3374.027832		
1415.360962	3412.032715		
1416.679688	3401.703125		
1417.998413	3321.958496		
1419.317139	3358.462891		
1420.635864	3355.427002		
1421.95459	3349.283203		
1423.273315	3383.471924		
1424.592041	3445.045654		
1425.910767	3395.873047		
1427.229492	3421.370117		
1428.548218	3422.281494		
1429.866943	3387.103516		
1431.185669	3423.331787		
1432.504395	3431.984131		
1433.82312	3385.858398		
1435.141846	3422.005127		
1436.460571	3448.406982		
1437.779297	3393.356934		
1439.098022	3458.422607		
1440.416748	3418.562744		
1441.735474	3403.841553		
1443.054199	3414.446045		
1444.372925	3416.504883		
1445.69165	3481.556152		
1447.010376	3509.327148		
1448.329102	3496.646729		
1449.647827	3504.605469		
1450.966553	3512.120605		
1452.285278	3520.724121		
1453.604004	3498.65918		
1454.922729	3481.452881		
1456.241455	3519.405762		
1457.560181	3478.072754		
1458.878906	3422.578125		
1460.197632	3444.962891		
1461.516357	3487.453369		
1462.835083	3412.842529		
1464.153809	3432.059082		
1465.472534	3474.723145		
1466.79126	3577.624268		
1468.109985	3504.507324		
1469.428711	3517.068359		
1470.747437	3506.05249		
1472.066162	3473.509521		
1473.384888	3474.597412		
1474.703613	3494.563965		
1476.022339	3503.899414		
1477.341064	3532.01001		
1478.65979	3537.517334		
1479.978516	3511.055908		
1481.297241	3512.65918		
1482.615967	3451.714844		
1483.934692	3479.231201		
1485.253418	3464.725586		
1486.572144	3461.624512		
1487.890869	3556.431641		
1489.209595	3570.67041		
1490.52832	3628.398438		
1491.847046	3532.187012		
1493.165771	3465.162598		
1494.484497	3520.323975		
1495.803223	3539.748779		
1497.121948	3520.901611		
1498.440674	3560.500488		
1499.759399	3586.013916		
1501.078125	3593.946777		
1502.396851	3589.424561		
1503.715576	3532.5896		
1505.034302	3498.243164		
1506.353027	3550.144287		
1507.671753	3593.24707		
1508.990479	3610.276611		
1510.309204	3577.87085		
1511.62793	3516.959717		
1512.946655	3520.665283		
1514.265381	3503.074219		
1515.584106	3505.380371		
1516.902832	3548.223389		
1518.221558	3572.55127		
1519.540283	3604.562012		
1520.859009	3619.25293		
1522.177734	3640.951172		
1523.49646	3645.499512		
1524.815186	3627.418213		
1526.133911	3592.400146		
1527.452637	3572.772217		
1528.771362	3553.499512		
1530.090088	3570.655029		
1531.408813	3635.704346		
1532.727539	3644.821533		
1534.046265	3603.380371		
1535.36499	3622.834961		
1536.683716	3648.625488		
1538.002441	3677.659912		
1539.321167	3753.761475		
1540.639893	3607.881104		
1541.958618	3654.647461		
1543.277344	3752.477295		
1544.596069	3626.870605		
1545.914795	3662.087891		
1547.233521	3573.189453		
1548.552246	3633.523193		
1549.870972	3731.80249		
1551.189697	3751.207275		
1552.508423	3712.638428		
1553.827148	3710.826904		
1555.145874	3656.218506		
1556.4646	3649.089844		
1557.783325	3691.982178		
1559.102051	3677.879883		
1560.420776	3650.891602		
1561.739502	3701.384521		
1563.058228	3742.176025		
1564.376953	3681.575439		
1565.695679	3657.131836		
1567.014404	3683.02002		
1568.33313	3737.082031		
1569.651855	3744.520264		
1570.970581	3713.719482		
1572.289307	3715.280029		
1573.608032	3756.964355		
1574.926758	3646.019531		
1576.245483	3755.735596		
1577.564209	3790.303955		
1578.882935	3770.826904		
1580.20166	3692.085938		
1581.520386	3687.901367		
1582.839111	3660.325928		
1584.157837	3719.733887		
1585.476563	3758.889648		
1586.795288	3773.351807		
1588.114014	3723.023438		
1589.432739	3681.805176		
1590.751465	3742.665039		
1592.07019	3767.674316		
1593.388916	3717.79248		
1594.707642	3745.27832		
1596.026367	3766.546631		
1597.345093	3714.175049		
1598.663818	3785.748779		
1599.982544	3833.813965		
1601.30127	3835.241943		
1602.619995	3759.299316		
1603.938721	3795.164307		
1605.257446	3774.568359		
1606.576172	3711.256836		
1607.894897	3675.11792		
1609.213623	3870.954834		
1610.532349	3758.755127		
1611.851074	3795.447021		
1613.1698	3751.828857		
1614.488525	3842.488281		
1615.807251	3873.703125		
1617.125977	3789.58374		
1618.444702	3783.779785		
1619.763428	3771.78125		
1621.082153	3822.453857		
1622.400879	3836.483398		
1623.719604	3827.512695		
1625.03833	3858.671387		
1626.357056	3874.077393		
1627.675781	3920.814941		
1628.994507	3953.764404		
1630.313232	3877.181641		
1631.631958	3859.986328		
1632.950684	3909.973145		
1634.269409	3858.265625		
1635.588135	3811.043213		
1636.90686	3838.736328		
1638.225586	3883.994629		
1639.544312	3839.44751		
1640.863037	3849.242676		
1642.181763	3943.636475		
1643.500488	3933.015137		
1644.819214	3862.905029		
1646.137939	3856.464355		
1647.456665	3860.646484		
1648.775391	3921.40918		
1650.094116	3878.301025		
1651.412842	3819.39209		
1652.731567	3952.11377		
1654.050293	3892.19873		
1655.369019	3932.027588		
1656.687744	3919.75		
1658.00647	3915.394775		
1659.325195	3915.646973		
1660.643921	3962.054443		
1661.962646	3954.282471		
1663.281372	4017.739502		
1664.600098	4020.436523		
1665.918823	3923.533691		
1667.237549	3943.02417		
1668.556274	3987.487549		
1669.875	3972.19751		
1671.193726	3986.914551		
1672.512451	3965.188965		
1673.831177	3944.937012		
1675.149902	4003.366699		
1676.468628	4025.167236		
1677.787354	3996.029297		
1679.106079	3989.073242		
1680.424805	3971.831055		
1681.74353	3960.862793		
1683.062256	4005.530762		
1684.380981	3953.941162		
1685.699707	3992.341064		
1687.018433	3959.820313		
1688.337158	3941.389404		
1689.655884	3995.093262		
1690.974609	4019.114502		
1692.293335	3908.458252		
1693.612061	3961.95459		
1694.930786	3962.415283		
1696.249512	3918.194092		
1697.568237	3940.89209		
1698.886963	3917.646484		
1700.205688	3967.473145		
1701.524414	4021.319336		
1702.84314	3977.407227		
1704.161865	4012.128662		
1705.480591	3991.941406		
1706.799316	3892.930664		
1708.118042	3886.996582		
1709.436768	3907.761475		
1710.755493	3963.810303		
1712.074219	4003.473389		
1713.392944	3989.567139		
1714.71167	3997.353516		
1716.030396	3994.169922		
1717.349121	4039.634766		
1718.667847	4006.427002		
1719.986572	3976.113281		
1721.305298	4025.570801		
1722.624023	3977.248535		
1723.942749	3980.17627		
1725.261475	3973.372803		
1726.5802	4018.716553		
1727.898926	4072.442383		
1729.217651	3996.862061		
1730.536377	4010.974854		
1731.855103	4057.433838		
1733.173828	4028.011475		
1734.492554	4018.328857		
1735.811279	4038.527588		
1737.130005	4075.162598		
1738.44873	4026.386475		
1739.767456	3994.996826		
1741.086182	4026.831543		
1742.404907	4058.592041		
1743.723633	4070.672363		
1745.042358	4047.67334		
1746.361084	4117.138672		
1747.67981	4014.71875		
1748.998535	4106.640137		
1750.317261	4004.673584		
1751.635986	4011.479004		
1752.954712	3993.419678		
1754.273438	4120.901367		
1755.592163	4051.059814		
1756.910889	4037.648438		
1758.229614	4058.579102		
1759.54834	4111.414063		
1760.867065	4173.408203		
1762.185791	4123.174805		
1763.504517	4122.679688		
1764.823242	4129.750977		
1766.141968	4125.643066		
1767.460693	4103.828125		
1768.779419	4127.040039		
1770.098145	4170.71875		
1771.41687	4207.721191		
1772.735596	4180.938965		
1774.054321	4197.996582		
1775.373047	4142.087402		
1776.691772	4172.964355		
1778.010498	4192.07666		
1779.329224	4114.04834		
1780.647949	4118.608887		
1781.966675	4144.445313		
1783.2854	4136.62207		
1784.604126	4075.366455		
1785.922852	4126.849609		
1787.241577	4164.155273		
1788.560303	4114.391602		
1789.879028	4161.145508		
1791.197754	4164.69043		
1792.516479	4169.968262		
1793.835205	4168.385254		
1795.153931	4099.599121		
1796.472656	4203.725098		
1797.791382	4224.885742		
1799.110107	4090.605469		
1800.428833	4127.584473		
1801.747559	4155.981934		
1803.066284	4173.458008		
1804.38501	4173.02002		
1805.703735	4137.898926		
1807.022461	4126.977051		
1808.341187	4145.60498		
1809.659912	4164.39502		
1810.978638	4169.642578		
1812.297363	4218.795898		
1813.616089	4209.517578		
1814.934814	4150.375977		
1816.25354	4099.064941		
1817.572266	4068.474365		
1818.890991	4169.295898		
1820.209717	4199.112305		
1821.528442	4233.012695		
1822.847168	4230.03125		
1824.165894	4223.988281		
1825.484619	4278.313965		
1826.803345	4166.182617		
1828.12207	4160.468262		
1829.440796	4181.39209		
1830.759521	4193.663086		
1832.078247	4160.351074		
1833.396973	4140.661621		
1834.715698	4157.672852		
1836.034424	4218.344727		
1837.353149	4160.337402		
1838.671875	4254.877441		
1839.990601	4248.465332		
1841.309326	4225.708496		
1842.628052	4228.952148		
1843.946777	4089.599365		
1845.265503	4304.645508		
1846.584229	4310.618164		
1847.902954	4216.164063		
1849.22168	4132.498535		
1850.540405	4250.853027		
1851.859131	4347.906738		
1853.177856	4241.253906		
1854.496582	4294.118652		
1855.815308	4197.371094		
1857.134033	4274.518555		
1858.452759	4244.190918		
1859.771484	4261.192383		
1861.09021	4332.280762		
1862.408936	4375.064941		
1863.727661	4309.295898		
1865.046387	4262.337891		
1866.365112	4319.431152		
1867.683838	4362.299805		
1869.002563	4264.175293		
1870.321289	4342.334961		
1871.640015	4413.571289		
1872.95874	4295.287109		
1874.277466	4290.298828		
1875.596191	4291.156738		
1876.914917	4445.345215		
1878.233643	4323.291016		
1879.552368	4379.203125		
1880.871094	4360.408691		
1882.189819	4371.460938		
1883.508545	4348.780762		
1884.827271	4256.837402		
1886.145996	4362.964355		
1887.464722	4366.644531		
1888.783447	4307.727539		
1890.102173	4322.233887		
1891.420898	4376.722656		
1892.739624	4361.522949		
1894.05835	4377.664063		
1895.377075	4355.806152		
1896.695801	4376.810547		
1898.014526	4447.305664		
1899.333252	4391.955566		
1900.651978	4412.929688		
1901.970703	4377.918945		
1903.289429	4418.567383		
1904.608154	4386.796875		
1905.92688	4370.325684		
1907.245605	4401.23877		
1908.564331	4389.033691		
1909.883057	4381.437012		
1911.201782	4407.945313		
1912.520508	4349.297363		
1913.839233	4470.482422		
1915.157959	4413.583984		
1916.476685	4384.55127		
1917.79541	4492.049316		
1919.114136	4352.067871		
1920.432861	4497.327637		
1921.751587	4336.69043		
1923.070313	4333.025879		
1924.389038	4460.865234		
1925.707764	4322.609375		
1927.026489	4389.628906		
1928.345215	4496.276855		
1929.66394	4460.288574		
1930.982666	4441.20166		
1932.301392	4467.512695		
1933.620117	4425.87207		
1934.938843	4510.45459		
1936.257568	4463.255859		
1937.576294	4467.414551		
1938.89502	4399.746582		
1940.213745	4470.790039		
1941.532471	4458.587891		
1942.851196	4352.394043		
1944.169922	4445.431641		
1945.488647	4407.937012		
1946.807373	4435.8125		
1948.126099	4594.602539		
1949.444824	4452.561523		
1950.76355	4463.625488		
1952.082275	4355.387207		
1953.401001	4525.917969		
1954.719727	4409.104492		
1956.038452	4481.474609		
1957.357178	4528.30957		
1958.675903	4486.427246		
1959.994629	4454.601563		
1961.313354	4418.875488		
1962.63208	4541.572754		
1963.950806	4511.839355		
1965.269531	4478.381348		
1966.588257	4468.942871		
1967.906982	4422.699219		
1969.225708	4480.433105		
1970.544434	4400.513184		
1971.863159	4470.950195		
1973.181885	4470.244141		
1974.50061	4522.21875		
1975.819336	4529.694336		
1977.138062	4530.317383		
1978.456787	4601.890625		
1979.775513	4577.496094		
1981.094238	4603.641113		
1982.412964	4490.406738		
1983.731689	4575.219238		
1985.050415	4509.384277		
1986.369141	4503.167969		
1987.687866	4508.432129		
1989.006592	4489.690918		
1990.325317	4607.332031		
1991.644043	4616.233398		
1992.962769	4554.314453		
1994.281494	4534.727539		
1995.60022	4609.478027		
1996.918945	4664.202148		
1998.237671	4639.254883		
1999.556396	4641.255859		
2000.875122	4687.360352		
2002.193848	4664.46875		
2003.512573	4625.856445		
2004.831299	4699.693848		
2006.150024	4682.0		
2007.46875	4646.846191		
2008.787476	4629.648438		
2010.106201	4659.459473		
2011.424927	4616.756836		
2012.743652	4601.510742		
2014.062378	4536.081055		
2015.381104	4556.677734		
2016.699829	4617.95166		
2018.018555	4640.981445		
2019.33728	4625.79541		
2020.656006	4637.787598		
2021.974731	4642.003418		
2023.293457	4681.753418		
2024.612183	4650.181641		
2025.930908	4719.908203		
2027.249634	4748.504395		
2028.568359	4663.90918		
2029.887085	4785.543457		
2031.205811	4715.273926		
2032.524536	4750.981934		
2033.843262	4770.658203		
2035.161987	4720.085449		
2036.480713	4706.849609		
2037.799438	4690.946289		
2039.118164	4677.664551		
2040.43689	4694.266602		
2041.755615	4731.6875		
2043.074341	4673.744629		
2044.393066	4613.813965		
2045.711792	4700.339355		
2047.030518	4706.78418		
2048.349121	4764.121582		
2049.667725	4672.07373		
2050.986328	4670.010254		
2052.304932	4759.799316		
2053.623535	4708.703125		
2054.942139	4729.486816		
2056.260742	4770.429199		
2057.579346	4696.606934		
2058.897949	4642.418457		
2060.216553	4683.527832		
2061.535156	4694.132324		
2062.85376	4688.113281		
2064.172363	4703.447754		
2065.490967	4729.082031		
2066.80957	4737.146484		
2068.128174	4728.366211		
2069.446777	4745.308594		
2070.765381	4728.118652		
2072.083984	4686.929688		
2073.402588	4698.398438		
2074.721191	4782.169922		
2076.039795	4740.134277		
2077.358398	4805.260254		
2078.677002	4791.871094		
2079.995605	4723.045898		
2081.314209	4765.602539		
2082.632813	4768.948242		
2083.951416	4798.179199		
2085.27002	4795.71582		
2086.588623	4762.337891		
2087.907227	4749.608887		
2089.22583	4749.082031		
2090.544434	4768.983398		
2091.863037	4695.402832		
2093.181641	4767.906738		
2094.500244	4711.841797		
2095.818848	4806.977539		
2097.137451	4905.203613		
2098.456055	4826.958984		
2099.774658	4882.095215		
2101.093262	4807.138672		
2102.411865	4745.343262		
2103.730469	4777.633301		
2105.049072	4856.765625		
2106.367676	4844.941895		
2107.686279	4858.500488		
2109.004883	4873.177246		
2110.323486	4796.293945		
2111.64209	4782.717285		
2112.960693	4912.795898		
2114.279297	4943.780273		
2115.5979	4891.036621		
2116.916504	4808.782715		
2118.235107	4881.971191		
2119.553711	4830.629395		
2120.872314	4898.512695		
2122.190918	4875.079102		
2123.509521	4846.234375		
2124.828125	4884.111816		
2126.146729	4873.268555		
2127.465332	4890.671875		
2128.783936	4876.282227		
2130.102539	4923.980957		
2131.421143	4880.603027		
2132.739746	4934.274414		
2134.05835	4893.683105		
2135.376953	5004.314941		
2136.695557	4938.635254		
2138.01416	4823.699707		
2139.332764	4950.675781		
2140.651367	4912.654297		
2141.969971	4974.892578		
2143.288574	4843.097656		
2144.607178	4944.564453		
2145.925781	4929.518066		
2147.244385	4921.584961		
2148.562988	4942.174805		
2149.881592	4946.918945		
2151.200195	4917.757324		
2152.518799	4977.37793		
2153.837402	4990.906738		
2155.156006	5014.874023		
2156.474609	4989.654297		
2157.793213	4924.541992		
2159.111816	4902.28125		
2160.43042	4903.621582		
2161.749023	4925.052246		
2163.067627	4883.154297		
2164.38623	4910.520508		
2165.704834	4951.776855		
2167.023438	4948.692383		
2168.342041	4976.978027		
2169.660645	4951.684082		
2170.979248	4969.562012		
2172.297852	4969.001953		
2173.616455	5023.101563		
2174.935059	4941.430664		
2176.253662	4955.218262		
2177.572266	4988.802246		
2178.890869	5001.271484		
2180.209473	4969.968262		
2181.528076	4900.048828		
2182.84668	4996.655273		
2184.165283	5027.953613		
2185.483887	5054.282715		
2186.80249	4931.547852		
2188.121094	4912.805176		
2189.439697	4986.645996		
2190.758301	4983.499023		
2192.076904	5004.36084		
2193.395508	4958.388672		
2194.714111	4925.478516		
2196.032715	4948.737305		
2197.351318	5068.751953		
2198.669922	5056.779297		
2199.988525	4954.05127		
2201.307129	4974.747559		
2202.625732	5017.479004		
2203.944336	5078.219727		
2205.262939	4940.033691		
2206.581543	4984.93457		
2207.900146	5056.470215		
2209.21875	5063.755371		
2210.537354	4965.195801		
2211.855957	5154.565918		
2213.174561	5107.169922		
2214.493164	5037.185059		
2215.811768	5100.919922		
2217.130371	5053.412109		
2218.448975	4972.072754		
2219.767578	4954.800781		
2221.086182	5064.713379		
2222.404785	5099.462402		
2223.723389	5083.271973		
2225.041992	5088.56543		
2226.360596	5075.933105		
2227.679199	5028.356445		
2228.997803	5019.408691		
2230.316406	5164.333008		
2231.63501	5171.352051		
2232.953613	5116.692383		
2234.272217	5092.723145		
2235.59082	5027.766602		
2236.909424	5084.902344		
2238.228027	4995.439453		
2239.546631	5122.302246		
2240.865234	5253.725586		
2242.183838	5127.496582		
2243.502441	5171.12207		
2244.821045	5044.924316		
2246.139648	5132.274414		
2247.458252	5128.607422		
2248.776855	5127.825195		
2250.095459	5092.288086		
2251.414063	5146.068359		
2252.732666	5119.500488		
2254.05127	5181.911621		
2255.369873	5239.845703		
2256.688477	5236.447754		
2258.00708	5175.244629		
2259.325684	5195.624023		
2260.644287	5102.523438		
2261.962891	5162.835449		
2263.281494	5161.346191		
2264.600098	5144.95459		
2265.918701	5100.969238		
2267.237305	5040.199707		
2268.555908	5073.113281		
2269.874512	5123.145508		
2271.193115	5191.558105		
2272.511719	5069.047852		
2273.830322	5236.286133		
2275.148926	5171.139648		
2276.467529	5185.996582		
2277.786133	5283.32959		
2279.104736	5203.437988		
2280.42334	5162.17041		
2281.741943	5164.399902		
2283.060547	5148.111816		
2284.37915	5169.461426		
2285.697754	5166.681641		
2287.016357	5207.283203		
2288.334961	5242.037109		
2289.653564	5063.14502		
2290.972168	5079.190918		
2292.290771	5192.513184		
2293.609375	5201.658203		
2294.927979	5190.598633		
2296.246582	5208.811035		
2297.565186	5161.745605		
2298.883789	5180.308594		
2300.202393	5219.072266		
2301.520996	5212.870605		
2302.8396	5164.163086		
2304.158203	5116.532227		
2305.476807	5175.894531		
2306.79541	5132.935547		
2308.114014	5086.479492		
2309.432617	5073.818848		
2310.751221	5133.041016		
2312.069824	5169.657715		
2313.388428	5184.108398		
2314.707031	5199.600098		
2316.025635	5244.543457		
2317.344238	5293.371094		
2318.662842	5239.90918		
2319.981445	5242.104492		
2321.300049	5221.667969		
2322.618652	5181.783203		
2323.937256	5234.012207		
2325.255859	5190.27832		
2326.574463	5285.622559		
2327.893066	5272.636719		
2329.21167	5208.558594		
2330.530273	5264.154785		
2331.848877	5275.102051		
2333.16748	5343.016113		
2334.486084	5343.973145		
2335.804688	5245.180664		
2337.123291	5173.44873		
2338.441895	5422.324707		
2339.760498	5327.34375		
2341.079102	5269.77002		
2342.397705	5188.037598		
2343.716309	5369.077148		
2345.034912	5302.727051		
2346.353516	5281.161621		
2347.672119	5232.577148		
2348.990723	5281.567871		
2350.309326	5263.337891		
2351.62793	5261.111816		
2352.946533	5379.742188		
2354.265137	5308.117188		
2355.58374	5334.500977		
2356.902344	5353.915527		
2358.220947	5401.272461		
2359.539551	5190.053223		
2360.858154	5311.749023		
2362.176758	5304.220703		
2363.495361	5354.606445		
2364.813965	5362.127441		
2366.132568	5256.092773		
2367.451172	5302.806641		
2368.769775	5279.214355		
2370.088379	5265.76709		
2371.406982	5306.768066		
2372.725586	5302.391113		
2374.044189	5329.135742		
2375.362793	5351.444336		
2376.681396	5428.464844		
2378.0	5416.939941		
2379.318604	5379.69043		
2380.637207	5461.270508		
2381.955811	5422.361328		
2383.274414	5354.910156		
2384.593018	5375.341797		
2385.911621	5316.372559		
2387.230225	5343.492188		
2388.548828	5410.785645		
2389.867432	5433.57373		
2391.186035	5459.520508		
2392.504639	5475.111816		
2393.823242	5407.244629		
2395.141846	5374.539551		
2396.460449	5433.575684		
2397.779053	5382.985352		
2399.097656	5467.679199		
2400.41626	5443.413574		
2401.734863	5348.595703		
2403.053467	5410.158691		
2404.37207	5346.367676		
2405.690674	5400.864746		
2407.009277	5465.288574		
2408.327881	5433.966797		
2409.646484	5452.097656		
2410.965088	5455.685059		
2412.283691	5446.633789		
2413.602295	5444.317383		
2414.920898	5415.887695		
2416.239502	5426.914551		
2417.558105	5415.062012		
2418.876709	5421.345703		
2420.195313	5455.688477		
2421.513916	5391.113281		
2422.83252	5455.232422		
2424.151123	5425.78418		
2425.469727	5455.470215		
2426.78833	5440.985352		
2428.106934	5450.553711		
2429.425537	5383.265137		
2430.744141	5432.895508		
2432.062744	5421.062988		
2433.381348	5374.64502		
2434.699951	5464.050293		
2436.018555	5464.543945		
2437.337158	5497.561523		
2438.655762	5437.129883		
2439.974365	5409.655273		
2441.292969	5489.86377		
2442.611572	5444.263184		
2443.930176	5364.550781		
2445.248779	5365.238281		
2446.567383	5487.957031		
2447.885986	5566.693848		
2449.20459	5452.789063		
2450.523193	5536.655762		
2451.841797	5388.304688		
2453.1604	5521.431152		
2454.479004	5589.21582		
2455.797607	5457.575684		
2457.116211	5395.159668		
2458.434814	5503.485352		
2459.753418	5551.444336		
2461.072021	5529.837402		
2462.390625	5496.163574		
2463.709229	5571.821777		
2465.027832	5540.021973		
2466.346436	5638.418457		
2467.665039	5581.135742		
2468.983643	5540.331543		
2470.302246	5630.854004		
2471.62085	5506.384277		
2472.939453	5535.525879		
2474.258057	5481.573242		
2475.57666	5541.339844		
2476.895264	5571.760742		
2478.213867	5562.608887		
2479.532471	5539.927734		
2480.851074	5594.643066		
2482.169678	5617.350586		
2483.488281	5652.341797		
2484.806885	5554.630859		
2486.125488	5581.95459		
2487.444092	5581.57959		
2488.762695	5493.421387		
2490.081299	5590.952637		
2491.399902	5606.583984		
2492.718506	5594.774414		
2494.037109	5668.466309		
2495.355713	5632.867188		
2496.674316	5675.793945		
2497.99292	5606.818359		
2499.311523	5616.824219		
2500.630127	5684.744629		
2501.94873	5551.217285		
2503.267334	5568.757813		
2504.585938	5582.702637		
2505.904541	5596.870117		
2507.223145	5580.001953		
2508.541748	5612.776855		
2509.860352	5601.713379		
2511.178955	5617.076172		
2512.497559	5598.562988		
2513.816162	5676.029297		
2515.134766	5634.925293		
2516.453369	5592.764648		
2517.771973	5619.483398		
2519.090576	5679.176758		
2520.40918	5674.883789		
2521.727783	5632.736816		
2523.046387	5584.785645		
2524.36499	5560.234863		
2525.683594	5595.583496		
2527.002197	5619.956543		
2528.320801	5594.615234		
2529.639404	5608.601074		
2530.958008	5662.162598		
2532.276611	5420.306152		
2533.595215	5675.027344		
2534.913818	5654.221191		
2536.232422	5595.202637		
2537.551025	5684.177246		
2538.869629	5669.779785		
2540.188232	5609.816895		
2541.506836	5581.378906		
2542.825439	5621.573242		
2544.144043	5578.980957		
2545.462646	5691.819336		
2546.78125	5714.602051		
2548.099854	5710.433105		
2549.418457	5596.660156		
2550.737061	5651.834961		
2552.055664	5665.620605		
2553.374268	5621.118652		
2554.692871	5632.863281		
2556.011475	5633.730957		
2557.330078	5614.50293		
2558.648682	5551.797852		
2559.967285	5738.41748		
2561.285889	5573.791992		
2562.604492	5654.77832		
2563.923096	5649.872559		
2565.241699	5572.899902		
2566.560303	5634.720215		
2567.878906	5629.151367		
2569.19751	5630.245117		
2570.516113	5592.831543		
2571.834717	5621.047363		
2573.15332	5523.15918		
2574.471924	5612.620117		
2575.790527	5672.085449		
2577.109131	5759.577148		
2578.427734	5730.18457		
2579.746338	5660.695313		
2581.064941	5647.316406		
2582.383545	5648.462402		
2583.702148	5689.492676		
2585.020752	5599.475586		
2586.339355	5667.597656		
2587.657959	5632.543945		
2588.976563	5742.579102		
2590.295166	5760.413086		
2591.61377	5685.153809		
2592.932373	5783.684082		
2594.250977	5704.290527		
2595.56958	5698.060059		
2596.888184	5664.470703		
2598.206787	5825.848145		
2599.525391	5731.772949		
2600.843994	5752.489258		
2602.162598	5679.645508		
2603.481201	5712.203125		
2604.799805	5736.691406		
2606.118408	5761.867676		
2607.437012	5742.019043		
2608.755615	5663.105957		
2610.074219	5738.786133		
2611.392822	5674.458496		
2612.711426	5645.535645		
2614.030029	5746.39502		
2615.348633	5733.368652		
2616.667236	5724.988281		
2617.98584	5788.759766		
2619.304443	5666.17627		
2620.623047	5729.716309		
2621.94165	5690.200195		
2623.260254	5701.978027		
2624.578857	5743.288086		
2625.897461	5678.556152		
2627.216064	5754.360352		
2628.534668	5773.129395		
2629.853271	5770.192383		
2631.171875	5862.29248		
2632.490479	5764.897461		
2633.809082	5817.914551		
2635.127686	5855.14502		
2636.446289	5898.333008		
2637.764893	5733.262695		
2639.083496	5818.700684		
2640.4021	5723.327637		
2641.720703	5708.803223		
2643.039307	5674.956543		
2644.35791	5773.770996		
2645.676514	5789.15625		
2646.995117	5736.88623		
2648.313721	5795.406738		
2649.632324	5810.982422		
2650.950928	5771.741699		
2652.269531	5780.211426		
2653.588135	5638.537109		
2654.906738	5743.528809		
2656.225342	5732.559082		
2657.543945	5698.610352		
2658.862549	5712.118164		
2660.181152	5796.807617		
2661.499756	5872.058105		
2662.818359	5851.108887		
2664.136963	5743.812988		
2665.455566	5727.63623		
2666.77417	5765.427246		
2668.092773	5787.45459		
2669.411377	5821.157715		
2670.72998	5799.563477		
2672.048584	5769.449219		
2673.367188	5779.473633		
2674.685791	5804.643066		
2676.004395	5947.233398		
2677.322998	5981.534668		
2678.641602	5858.478027		
2679.960205	5866.285645		
2681.278809	5852.786133		
2682.597412	5815.861816		
2683.916016	5802.886719		
2685.234619	5790.529297		
2686.553223	5772.492188		
2687.871826	5773.628418		
2689.19043	5802.562012		
2690.509033	5852.222168		
2691.827637	5791.860352		
2693.14624	5806.56543		
2694.464844	5750.916016		
2695.783447	5767.74707		
2697.102051	5849.740234		
2698.420654	5880.275879		
2699.739258	5852.959473		
2701.057861	5854.855957		
2702.376465	5857.628906		
2703.695068	5906.853516		
2705.013672	5860.39209		
2706.332275	5838.691406		
2707.650879	5837.095215		
2708.969482	5795.813965		
2710.288086	5818.569336		
2711.606689	5765.458496		
2712.925293	5827.408203		
2714.243896	5826.009766		
2715.5625	5764.395996		
2716.881104	5838.300293		
2718.199707	5860.596191		
2719.518311	5916.378906		
2720.836914	5854.444824		
2722.155518	5911.694824		
2723.474121	5872.948242		
2724.792725	5800.776367		
2726.111328	5862.949219		
2727.429932	5803.40918		
2728.748535	5858.658691		
2730.067139	5924.6875		
2731.385742	5790.269531		
2732.704346	5847.359375		
2734.022949	5903.115234		
2735.341553	5864.703125		
2736.660156	5895.135742		
2737.97876	5836.28125		
2739.297363	5804.183594		
2740.615967	5922.412598		
2741.93457	5737.255371		
2743.253174	5864.320313		
2744.571777	5833.640137		
2745.890381	5812.150879		
2747.208984	5883.366211		
2748.527588	5833.601074		
2749.846191	5973.529785		
2751.164795	5925.306152		
2752.483398	5909.948242		
2753.802002	5822.858887		
2755.120605	5847.292969		
2756.439209	5843.40625		
2757.757813	5892.450684		
2759.076416	5976.52832		
2760.39502	5828.080566		
2761.713623	5797.334961		
2763.032227	5847.06543		
2764.35083	5822.182617		
2765.669434	5920.138184		
2766.988037	5934.225586		
2768.306641	5869.255859		
2769.625244	5836.963867		
2770.943848	5874.361328		
2772.262451	5754.900879		
2773.581055	5798.212402		
2774.899658	5854.287598		
2776.218262	5787.049316		
2777.536865	5870.049805		
2778.855469	5848.784668		
2780.174072	5780.870605		
2781.492676	5820.626465		
2782.811279	5939.642578		
2784.129883	5925.591309		
2785.448486	5858.804688		
2786.76709	5958.310059		
2788.085693	5858.900879		
2789.404297	5922.820801		
2790.7229	5956.34375		
2792.041504	5953.008789		
2793.360107	5878.574707		
2794.678711	5894.077148		
2795.997314	5927.297852		
2797.315918	5907.442383		
2798.634521	5931.419434		
2799.953125	5939.052246		
2801.271729	5902.229492		
2802.590332	5854.04834		
2803.908936	5910.052246		
2805.227539	5847.291504		
2806.546143	5989.186035		
2807.864746	5947.453125		
2809.18335	5984.583984		
2810.501953	5969.566895		
2811.820557	5928.987793		
2813.13916	5988.944824		
2814.457764	5971.013184		
2815.776367	5907.415527		
2817.094971	5906.01416		
2818.413574	5925.938477		
2819.732178	5955.353027		
2821.050781	5952.06543		
2822.369385	5961.406738		
2823.687988	5915.070313		
2825.006592	5883.02002		
2826.325195	5993.808105		
2827.643799	6035.090332		
2828.962402	6037.570313		
2830.281006	6076.567871		
2831.599609	6034.443359		
2832.918213	6031.888672		
2834.236816	5839.595215		
2835.55542	5869.448242		
2836.874023	6048.182617		
2838.192627	5996.275391		
2839.51123	6044.101074		
2840.829834	6038.53418		
2842.148438	6000.333496		
2843.467041	6006.966309		
2844.785645	6089.226074		
2846.104248	5966.460449		
2847.422852	5931.410156		
2848.741455	5953.318359		
2850.060059	5937.762695		
2851.378662	5910.86377		
2852.697266	5953.873047		
2854.015869	6035.713379		
2855.334473	6038.074219		
2856.653076	6015.87207		
2857.97168	5990.262207		
2859.290283	6010.341309		
2860.608887	6034.096191		
2861.92749	5979.25293		
2863.246094	5963.805664		
2864.564697	5974.102539		
2865.883301	6079.455566		
2867.201904	6063.238281		
2868.520508	6090.272949		
2869.839111	6013.884766		
2871.157715	6054.845703		
2872.476318	6071.560059		
2873.794922	6121.134766		
2875.113525	6040.727051		
2876.432129	6099.004395		
2877.750732	6072.87207		
2879.069336	6155.550781		
2880.387939	6036.637695		
2881.706543	6015.531738		
2883.025146	6126.439941		
2884.34375	6134.51709		
2885.662354	6044.147461		
2886.980957	6073.564941		
2888.299561	6095.704102		
2889.618164	6051.61377		
2890.936768	6146.172363		
2892.255371	6194.687988		
2893.573975	6146.868652		
2894.892578	6174.697754		
2896.211182	6129.769043		
2897.529785	6099.482422		
2898.848389	6138.890137		
2900.166992	6136.084473		
2901.485596	6200.401367		
2902.804199	6210.902832		
2904.122803	6144.72168		
2905.441406	6192.499023		
2906.76001	6142.874023		
2908.078613	6077.277344		
2909.397217	6174.599609		
2910.71582	6220.407715		
2912.034424	6145.976074		
2913.353027	6171.286133		
2914.671631	6175.85791		
2915.990234	6125.342773		
2917.308838	6207.532227		
2918.627441	6185.63916		
2919.946045	6127.522461		
2921.264648	6141.722656		
2922.583252	6093.310547		
2923.901855	6216.854492		
2925.220459	6089.928223		
2926.539063	6182.188965		
2927.857666	6217.301758		
2929.17627	6132.23877		
2930.494873	6192.43457		
2931.813477	6179.124023		
2933.13208	6203.427246		
2934.450684	6052.219727		
2935.769287	6201.041016		
2937.087891	6259.589844		
2938.406494	6182.775879		
2939.725098	6267.76123		
2941.043701	6247.40332		
2942.362305	6195.259766		
2943.680908	6224.512695		
2944.999512	6191.588867		
2946.318115	6201.29541		
2947.636719	6295.01709		
2948.955322	6259.566895		
2950.273926	6293.371094		
2951.592529	6242.026367		
2952.911133	6285.481934		
2954.229736	6290.94043		
2955.54834	6306.262695		
2956.866943	6270.739746		
2958.185547	6192.479492		
2959.50415	6090.835938		
2960.822754	6232.238281		
2962.141357	6206.255371		
2963.459961	6122.775391		
2964.778564	6212.17627		
2966.097168	6267.797852		
2967.415771	6327.913086		
2968.734375	6075.928223		
2970.052979	6166.757813		
2971.371582	6214.394531		
2972.690186	6205.52832		
2974.008789	6182.212891		
2975.327393	6187.950684		
2976.645996	6154.931641		
2977.9646	6247.078613		
2979.283203	6320.636719		
2980.601807	6240.886719		
2981.92041	6160.506836		
2983.239014	6025.490723		
2984.557617	6264.46875		
2985.876221	6254.639648		
2987.194824	6254.876953		
2988.513428	6188.987793		
2989.832031	6110.365723		
2991.150635	6246.152344		
2992.469238	6219.704102		
2993.787842	6229.123535		
2995.106445	6192.971191		
2996.425049	6275.705078		
2997.743652	6275.164063		
2999.062256	6210.084473		
3000.380859	6189.952148		
